周波数 (Hz)	レベル (dB)
43.066406	-28.814854
86.132812	-27.563015
129.199219	-30.277929
172.265625	-34.395103
215.332031	-36.409443
258.398438	-42.680508
301.464844	-42.159218
344.531250	-41.355732
387.597656	-45.363449
430.664062	-47.380035
473.730469	-43.294281
516.796875	-37.896267
559.863281	-39.889515
602.929688	-45.326115
645.996094	-46.264660
689.062500	-46.829041
732.128906	-47.587513
775.195312	-50.561264
818.261719	-45.820961
861.328125	-45.774555
904.394531	-47.879051
947.460938	-48.973057
990.527344	-48.378445
1033.593750	-48.725761
1076.660156	-47.194756
1119.726562	-45.723042
1162.792969	-47.540596
1205.859375	-48.529751
1248.925781	-47.202274
1291.992188	-48.338280
1335.058594	-48.133636
1378.125000	-48.119892
1421.191406	-47.884060
1464.257812	-48.081245
1507.324219	-45.830387
1550.390625	-44.764561
1593.457031	-46.401230
1636.523438	-48.101479
1679.589844	-47.180199
1722.656250	-45.373573
1765.722656	-44.575798
1808.789062	-44.090904
1851.855469	-44.324505
1894.921875	-46.379177
1937.988281	-48.712360
1981.054688	-50.197105
2024.121094	-50.768700
2067.187500	-47.067043
2110.253906	-45.010891
2153.320312	-45.261108
2196.386719	-46.469631
2239.453125	-49.336994
2282.519531	-51.515919
2325.585938	-47.637150
2368.652344	-45.534447
2411.718750	-47.253231
2454.785156	-50.201092
2497.851562	-48.698559
2540.917969	-46.225021
2583.984375	-46.309208
2627.050781	-47.876331
2670.117188	-46.885677
2713.183594	-45.611031
2756.250000	-46.990753
2799.316406	-50.301994
2842.382812	-48.560581
2885.449219	-47.886837
2928.515625	-48.780533
2971.582031	-48.631901
3014.648438	-46.731613
3057.714844	-45.200531
3100.781250	-45.194103
3143.847656	-45.276543
3186.914062	-45.215839
3229.980469	-45.653885
3273.046875	-47.208012
3316.113281	-48.293617
3359.179688	-46.471893
3402.246094	-44.639381
3445.312500	-45.232410
3488.378906	-47.183006
3531.445312	-48.910061
3574.511719	-50.176933
3617.578125	-50.966999
3660.644531	-50.167366
3703.710938	-47.853214
3746.777344	-47.841026
3789.843750	-47.836849
3832.910156	-46.099751
3875.976562	-44.880062
3919.042969	-44.428062
3962.109375	-45.639400
4005.175781	-47.459789
4048.242188	-46.855808
4091.308594	-45.509270
4134.375000	-45.164780
4177.441406	-43.963581
4220.507812	-42.763912
4263.574219	-42.809299
4306.640625	-43.016182
4349.707031	-42.828575
4392.773438	-43.300465
4435.839844	-44.781433
4478.906250	-46.837566
4521.972656	-50.908787
4565.039062	-50.065247
4608.105469	-46.115555
4651.171875	-45.396709
4694.238281	-46.591095
4737.304688	-46.586910
4780.371094	-45.234520
4823.437500	-44.656151
4866.503906	-46.852875
4909.570312	-49.435188
4952.636719	-46.473373
4995.703125	-45.070312
5038.769531	-45.484058
5081.835938	-47.403072
5124.902344	-48.273045
5167.968750	-46.712788
5211.035156	-47.532948
5254.101562	-49.635414
5297.167969	-54.556568
5340.234375	-52.060959
5383.300781	-48.136841
5426.367188	-47.782093
5469.433594	-49.048786
5512.500000	-49.656368
5555.566406	-50.533669
5598.632812	-51.277878
5641.699219	-51.987602
5684.765625	-52.355621
5727.832031	-51.065857
5770.898438	-50.082359
5813.964844	-51.101974
5857.031250	-51.446072
5900.097656	-48.737617
5943.164062	-46.753181
5986.230469	-47.044624
6029.296875	-48.919689
6072.363281	-50.384632
6115.429688	-50.807514
6158.496094	-49.094494
6201.562500	-48.557846
6244.628906	-49.487003
6287.695312	-50.288689
6330.761719	-45.728565
6373.828125	-44.370243
6416.894531	-47.596859
6459.960938	-52.779171
6503.027344	-53.358929
6546.093750	-51.087097
6589.160156	-48.364197
6632.226562	-47.718620
6675.292969	-47.550781
6718.359375	-49.241360
6761.425781	-50.379211
6804.492188	-49.448597
6847.558594	-48.472130
6890.625000	-47.947311
6933.691406	-46.580677
6976.757812	-46.551857
7019.824219	-47.233448
7062.890625	-46.038628
7105.957031	-45.248642
7149.023438	-45.619347
7192.089844	-46.237694
7235.156250	-46.152233
7278.222656	-46.164684
7321.289062	-46.480122
7364.355469	-47.054707
7407.421875	-47.744911
7450.488281	-49.263996
7493.554688	-51.382057
7536.621094	-52.701656
7579.687500	-52.993568
7622.753906	-53.524048
7665.820312	-53.504414
7708.886719	-53.290161
7751.953125	-52.093849
7795.019531	-48.816048
7838.085938	-47.960167
7881.152344	-48.049725
7924.218750	-48.189873
7967.285156	-49.825306
8010.351562	-49.533436
8053.417969	-48.107357
8096.484375	-47.854763
8139.550781	-48.068729
8182.617188	-48.685719
8225.683594	-48.378967
8268.750000	-48.631035
8311.816406	-48.691574
8354.882812	-48.701481
8397.949219	-49.186626
8441.015625	-49.642033
8484.082031	-49.544651
8527.148438	-50.614864
8570.214844	-50.808632
8613.281250	-49.140965
8656.347656	-47.929577
8699.414062	-49.680847
8742.480469	-49.120522
8785.546875	-47.679424
8828.613281	-48.536114
8871.679688	-51.136341
8914.746094	-50.605259
8957.812500	-48.853966
9000.878906	-47.857563
9043.945312	-46.522350
9087.011719	-46.040874
9130.078125	-46.719887
9173.144531	-47.967453
9216.210938	-48.618130
9259.277344	-48.693535
9302.343750	-46.454723
9345.410156	-44.277836
9388.476562	-45.410698
9431.542969	-48.481339
9474.609375	-49.821228
9517.675781	-47.625355
9560.742188	-47.008560
9603.808594	-45.012180
9646.875000	-44.026966
9689.941406	-45.336460
9733.007812	-44.079590
9776.074219	-41.950817
9819.140625	-42.130013
9862.207031	-44.168571
9905.273438	-45.603077
9948.339844	-45.347748
9991.406250	-45.549541
10034.472656	-48.125160
10077.539062	-50.230782
10120.605469	-48.649086
10163.671875	-46.416836
10206.738281	-45.116417
10249.804688	-45.778725
10292.871094	-48.463482
10335.937500	-51.116859
10379.003906	-52.636932
10422.070312	-52.740429
10465.136719	-50.369640
10508.203125	-49.671997
10551.269531	-48.267551
10594.335938	-46.012413
10637.402344	-45.754128
10680.468750	-46.300941
10723.535156	-45.009216
10766.601562	-44.159748
10809.667969	-43.891567
10852.734375	-46.708740
10895.800781	-49.433125
10938.867188	-49.750690
10981.933594	-48.960430
11025.000000	-45.369923
11068.066406	-44.020885
11111.132812	-44.910812
11154.199219	-46.139347
11197.265625	-47.358784
11240.332031	-48.655315
11283.398438	-48.997761
11326.464844	-48.463924
11369.531250	-45.984119
11412.597656	-43.583588
11455.664062	-42.983509
11498.730469	-44.535229
11541.796875	-46.772545
11584.863281	-46.297482
11627.929688	-45.412876
11670.996094	-45.079704
11714.062500	-47.253815
11757.128906	-45.395367
11800.195312	-42.832077
11843.261719	-41.069057
11886.328125	-41.094944
11929.394531	-42.006588
11972.460938	-42.825901
12015.527344	-42.043774
12058.593750	-41.438786
12101.660156	-42.408546
12144.726562	-45.291836
12187.792969	-45.023212
12230.859375	-44.256638
12273.925781	-45.426205
12316.992188	-46.380363
12360.058594	-45.954601
12403.125000	-47.216022
12446.191406	-48.343834
12489.257812	-45.024792
12532.324219	-42.295673
12575.390625	-41.909935
12618.457031	-41.701328
12661.523438	-41.008530
12704.589844	-40.833542
12747.656250	-41.569279
12790.722656	-42.046696
12833.789062	-41.579609
12876.855469	-41.041470
12919.921875	-41.922722
12962.988281	-42.729794
13006.054688	-44.756653
13049.121094	-44.900616
13092.187500	-40.993526
13135.253906	-39.296062
13178.320312	-40.981918
13221.386719	-42.083515
13264.453125	-40.125824
13307.519531	-39.572254
13350.585938	-42.271172
13393.652344	-43.010578
13436.718750	-40.930153
13479.785156	-41.549599
13522.851562	-41.764133
13565.917969	-40.976009
13608.984375	-42.470028
13652.050781	-43.381901
13695.117188	-41.678360
13738.183594	-40.953087
13781.250000	-41.986923
13824.316406	-42.559826
13867.382812	-42.116203
13910.449219	-43.133949
13953.515625	-44.828396
13996.582031	-44.982605
14039.648438	-44.145344
14082.714844	-44.053715
14125.781250	-45.815502
14168.847656	-45.069622
14211.914062	-43.736835
14254.980469	-43.167233
14298.046875	-43.295189
14341.113281	-44.439823
14384.179688	-44.777363
14427.246094	-42.814384
14470.312500	-41.966450
14513.378906	-40.951004
14556.445312	-41.880852
14599.511719	-43.457485
14642.578125	-41.506748
14685.644531	-41.462898
14728.710938	-42.601524
14771.777344	-40.666023
14814.843750	-40.110157
14857.910156	-40.855713
14900.976562	-40.598465
14944.042969	-40.252686
14987.109375	-39.289135
15030.175781	-37.657925
15073.242188	-36.648758
15116.308594	-38.134613
15159.375000	-38.182701
15202.441406	-36.879757
15245.507812	-37.955673
15288.574219	-38.547153
15331.640625	-38.249279
15374.707031	-39.463493
15417.773438	-40.064648
15460.839844	-40.697777
15503.906250	-41.206207
15546.972656	-43.725029
15590.039062	-45.045567
15633.105469	-43.315624
15676.171875	-42.132545
15719.238281	-43.849060
15762.304688	-41.368271
15805.371094	-37.300251
15848.437500	-37.304241
15891.503906	-40.222729
15934.570312	-42.603840
15977.636719	-41.789398
16020.703125	-41.262131
16063.769531	-41.227955
16106.835938	-41.723499
16149.902344	-42.527077
16192.968750	-40.268555
16236.035156	-37.182556
16279.101562	-36.442867
16322.167969	-37.634953
16365.234375	-37.452656
16408.300781	-35.357624
16451.367188	-34.612072
16494.433594	-35.449024
16537.500000	-37.077335
16580.566406	-38.368587
16623.632812	-40.258884
16666.699219	-42.965191
16709.765625	-41.057465
16752.832031	-39.945091
16795.898438	-40.300903
16838.964844	-40.832962
16882.031250	-41.953789
16925.097656	-43.345451
16968.164062	-40.714405
17011.230469	-39.030487
17054.296875	-39.164474
17097.363281	-38.289993
17140.429688	-35.585800
17183.496094	-35.076248
17226.562500	-36.669941
17269.628906	-39.566574
17312.695312	-39.434471
17355.761719	-37.384121
17398.828125	-37.083221
17441.894531	-39.156509
17484.960938	-41.057735
17528.027344	-40.522263
17571.093750	-40.825832
17614.160156	-41.567322
17657.226562	-39.442207
17700.292969	-36.822067
17743.359375	-36.172764
17786.425781	-37.252617
17829.492188	-36.989487
17872.558594	-34.432350
17915.625000	-34.365028
17958.691406	-34.862476
18001.757812	-33.677582
18044.824219	-33.793713
18087.890625	-36.060143
18130.957031	-35.732555
18174.023438	-34.766506
18217.089844	-36.380924
18260.156250	-35.961617
18303.222656	-34.733215
18346.289062	-38.251183
18389.355469	-39.792274
18432.421875	-35.019962
18475.488281	-34.141953
18518.554688	-36.975437
18561.621094	-39.092789
18604.687500	-37.185879
18647.753906	-37.527283
18690.820312	-38.939983
18733.886719	-37.547478
18776.953125	-36.570168
18820.019531	-36.864697
18863.085938	-38.995926
18906.152344	-36.507679
18949.218750	-34.231091
18992.285156	-35.156971
19035.351562	-39.058895
19078.417969	-42.532639
19121.484375	-40.291454
19164.550781	-40.637928
19207.617188	-41.707657
19250.683594	-40.338234
19293.750000	-41.277615
19336.816406	-42.103561
19379.882812	-37.392597
19422.949219	-35.887028
19466.015625	-38.313160
19509.082031	-41.101208
19552.148438	-36.326538
19595.214844	-35.976002
19638.281250	-38.520130
19681.347656	-40.333042
19724.414062	-39.819695
19767.480469	-39.412327
19810.546875	-38.554218
19853.613281	-37.346741
19896.679688	-38.338329
19939.746094	-38.764477
19982.812500	-37.495518
20025.878906	-38.590317
20068.945312	-41.362701
20112.011719	-41.248493
20155.078125	-39.104076
20198.144531	-39.072697
20241.210938	-42.590759
20284.277344	-45.508381
20327.343750	-40.428585
20370.410156	-39.474216
20413.476562	-42.123280
20456.542969	-46.570305
20499.609375	-44.062336
20542.675781	-43.400925
20585.742188	-43.402206
20628.808594	-44.255524
20671.875000	-46.262791
20714.941406	-47.973061
20758.007812	-44.251980
20801.074219	-42.170242
20844.140625	-42.779720
20887.207031	-44.007538
20930.273438	-45.622299
20973.339844	-48.859272
21016.406250	-43.988411
21059.472656	-41.585827
21102.539062	-42.425732
21145.605469	-44.300121
21188.671875	-47.467278
21231.738281	-47.714497
21274.804688	-45.190311
21317.871094	-44.488953
21360.937500	-46.373421
21404.003906	-46.935291
21447.070312	-46.769119
21490.136719	-46.455669
21533.203125	-45.611732
21576.269531	-45.096878
21619.335938	-45.096233
21662.402344	-45.926712
21705.468750	-45.504314
21748.535156	-44.281750
21791.601562	-44.556084
21834.667969	-47.229465
21877.734375	-49.445988
21920.800781	-48.315273
21963.867188	-47.189682
22006.933594	-48.766674
