周波数 (Hz)	レベル (dB)
43.066406	-28.075266
86.132812	-25.274319
129.199219	-26.999870
172.265625	-32.351685
215.332031	-34.767830
258.398438	-40.549347
301.464844	-41.652016
344.531250	-40.178207
387.597656	-41.106113
430.664062	-42.237885
473.730469	-42.729362
516.796875	-44.267769
559.863281	-45.707134
602.929688	-43.569473
645.996094	-40.767899
689.062500	-40.659382
732.128906	-43.084332
775.195312	-44.967293
818.261719	-42.839733
861.328125	-42.205807
904.394531	-41.714954
947.460938	-40.920593
990.527344	-41.759609
1033.593750	-44.189274
1076.660156	-43.935459
1119.726562	-43.113819
1162.792969	-43.899288
1205.859375	-43.000130
1248.925781	-41.279202
1291.992188	-42.528633
1335.058594	-45.114311
1378.125000	-48.264091
1421.191406	-51.199745
1464.257812	-48.805798
1507.324219	-44.456467
1550.390625	-41.113533
1593.457031	-40.137001
1636.523438	-41.700459
1679.589844	-43.733776
1722.656250	-42.475887
1765.722656	-40.759045
1808.789062	-39.791969
1851.855469	-39.486637
1894.921875	-39.494705
1937.988281	-40.537117
1981.054688	-42.498051
2024.121094	-45.416374
2067.187500	-47.009872
2110.253906	-43.496658
2153.320312	-41.397213
2196.386719	-43.257240
2239.453125	-49.847191
2282.519531	-47.716484
2325.585938	-44.169701
2368.652344	-42.771519
2411.718750	-43.452248
2454.785156	-43.906326
2497.851562	-43.138660
2540.917969	-45.720665
2583.984375	-48.862762
2627.050781	-46.807369
2670.117188	-47.462841
2713.183594	-49.418797
2756.250000	-46.100876
2799.316406	-43.557457
2842.382812	-42.496895
2885.449219	-42.812336
2928.515625	-42.655304
2971.582031	-42.137844
3014.648438	-41.283154
3057.714844	-39.091007
3100.781250	-38.228477
3143.847656	-39.101463
3186.914062	-40.662727
3229.980469	-43.015694
3273.046875	-45.127941
3316.113281	-46.226555
3359.179688	-47.944130
3402.246094	-46.500942
3445.312500	-43.836250
3488.378906	-41.060295
3531.445312	-40.723766
3574.511719	-42.788441
3617.578125	-45.541485
3660.644531	-46.016216
3703.710938	-42.783199
3746.777344	-40.626396
3789.843750	-39.853558
3832.910156	-39.398769
3875.976562	-40.116779
3919.042969	-41.436886
3962.109375	-42.422340
4005.175781	-42.142815
4048.242188	-40.913120
4091.308594	-40.346207
4134.375000	-41.131241
4177.441406	-42.015839
4220.507812	-43.654293
4263.574219	-46.241707
4306.640625	-45.478043
4349.707031	-43.307545
4392.773438	-42.440582
4435.839844	-43.231533
4478.906250	-45.311527
4521.972656	-45.852863
4565.039062	-45.040253
4608.105469	-44.739697
4651.171875	-44.592518
4694.238281	-45.727894
4737.304688	-45.859779
4780.371094	-46.158401
4823.437500	-47.749310
4866.503906	-46.910435
4909.570312	-45.089653
4952.636719	-45.363453
4995.703125	-46.799076
5038.769531	-48.017311
5081.835938	-50.340797
5124.902344	-46.983990
5167.968750	-45.024586
5211.035156	-46.471779
5254.101562	-49.178078
5297.167969	-48.708633
5340.234375	-47.292107
5383.300781	-46.157604
5426.367188	-45.154697
5469.433594	-45.509293
5512.500000	-46.851101
5555.566406	-48.756001
5598.632812	-48.382153
5641.699219	-47.260429
5684.765625	-47.211021
5727.832031	-48.048317
5770.898438	-49.554005
5813.964844	-49.877052
5857.031250	-51.023304
5900.097656	-54.320541
5943.164062	-56.411030
5986.230469	-55.509888
6029.296875	-52.926556
6072.363281	-52.538254
6115.429688	-53.283493
6158.496094	-52.954472
6201.562500	-52.897594
6244.628906	-52.561146
6287.695312	-52.713612
6330.761719	-51.980175
6373.828125	-49.049213
6416.894531	-48.038940
6459.960938	-47.967594
6503.027344	-48.169674
6546.093750	-49.787533
6589.160156	-52.041805
6632.226562	-50.019932
6675.292969	-48.812515
6718.359375	-50.003979
6761.425781	-52.260303
6804.492188	-53.662304
6847.558594	-52.609577
6890.625000	-49.072578
6933.691406	-46.498226
6976.757812	-45.725357
7019.824219	-45.335102
7062.890625	-46.063023
7105.957031	-49.257011
7149.023438	-51.561478
7192.089844	-50.182022
7235.156250	-47.855312
7278.222656	-48.339355
7321.289062	-49.729015
7364.355469	-49.874363
7407.421875	-48.125614
7450.488281	-47.094299
7493.554688	-47.242130
7536.621094	-47.994709
7579.687500	-48.954327
7622.753906	-46.823593
7665.820312	-46.298946
7708.886719	-49.560417
7751.953125	-51.617165
7795.019531	-50.802189
7838.085938	-48.275543
7881.152344	-46.560780
7924.218750	-47.306301
7967.285156	-48.524803
8010.351562	-48.735397
8053.417969	-47.514236
8096.484375	-46.882015
8139.550781	-49.012691
8182.617188	-50.887894
8225.683594	-48.378384
8268.750000	-45.298668
8311.816406	-44.614334
8354.882812	-46.402782
8397.949219	-47.883953
8441.015625	-46.480007
8484.082031	-46.946682
8527.148438	-47.630985
8570.214844	-46.214607
8613.281250	-46.744469
8656.347656	-47.526825
8699.414062	-46.734547
8742.480469	-45.242138
8785.546875	-45.134598
8828.613281	-45.902050
8871.679688	-46.114670
8914.746094	-44.866615
8957.812500	-44.550201
9000.878906	-46.153843
9043.945312	-46.892872
9087.011719	-44.824848
9130.078125	-43.089088
9173.144531	-43.370575
9216.210938	-46.247101
9259.277344	-50.616714
9302.343750	-51.637589
9345.410156	-49.191532
9388.476562	-46.717545
9431.542969	-45.834145
9474.609375	-45.904934
9517.675781	-48.195366
9560.742188	-50.076851
9603.808594	-48.717690
9646.875000	-48.195782
9689.941406	-48.261578
9733.007812	-49.074944
9776.074219	-48.691799
9819.140625	-44.984802
9862.207031	-42.743271
9905.273438	-43.425816
9948.339844	-45.869911
9991.406250	-45.743355
10034.472656	-44.767460
10077.539062	-45.497833
10120.605469	-46.480011
10163.671875	-48.759697
10206.738281	-49.005138
10249.804688	-45.600727
10292.871094	-44.102627
10335.937500	-43.933796
10379.003906	-45.716469
10422.070312	-45.793762
10465.136719	-43.485016
10508.203125	-43.732178
10551.269531	-45.383812
10594.335938	-45.017460
10637.402344	-43.136627
10680.468750	-41.624268
10723.535156	-43.077103
10766.601562	-46.249638
10809.667969	-46.354279
10852.734375	-43.773197
10895.800781	-41.238976
10938.867188	-40.449123
10981.933594	-40.632751
11025.000000	-42.256256
11068.066406	-44.040390
11111.132812	-43.686626
11154.199219	-42.883652
11197.265625	-43.486053
11240.332031	-43.964207
11283.398438	-45.538998
11326.464844	-44.800831
11369.531250	-43.546566
11412.597656	-43.410625
11455.664062	-41.417679
11498.730469	-41.184193
11541.796875	-43.006401
11584.863281	-43.036400
11627.929688	-39.993286
11670.996094	-39.975655
11714.062500	-44.129723
11757.128906	-48.693195
11800.195312	-51.182850
11843.261719	-49.248959
11886.328125	-48.172081
11929.394531	-46.193493
11972.460938	-43.399334
12015.527344	-40.537529
12058.593750	-39.746399
12101.660156	-40.391563
12144.726562	-41.521530
12187.792969	-42.865139
12230.859375	-45.051151
12273.925781	-44.706974
12316.992188	-41.610828
12360.058594	-40.556633
12403.125000	-40.283230
12446.191406	-39.239586
12489.257812	-37.847935
12532.324219	-38.385437
12575.390625	-40.884792
12618.457031	-44.330841
12661.523438	-43.287441
12704.589844	-41.059856
12747.656250	-41.155083
12790.722656	-41.431564
12833.789062	-41.991642
12876.855469	-43.004337
12919.921875	-45.097530
12962.988281	-47.959988
13006.054688	-48.390003
13049.121094	-43.156170
13092.187500	-37.898926
13135.253906	-37.425358
13178.320312	-39.086502
13221.386719	-39.745552
13264.453125	-39.506241
13307.519531	-40.635826
13350.585938	-40.089546
13393.652344	-39.225887
13436.718750	-40.010860
13479.785156	-40.531128
13522.851562	-40.657288
13565.917969	-42.701591
13608.984375	-42.833511
13652.050781	-42.972332
13695.117188	-44.547241
13738.183594	-48.188515
13781.250000	-47.021328
13824.316406	-46.398808
13867.382812	-41.472290
13910.449219	-40.975449
13953.515625	-41.294147
13996.582031	-38.858257
14039.648438	-38.740837
14082.714844	-39.299358
14125.781250	-39.276093
14168.847656	-38.791271
14211.914062	-39.453773
14254.980469	-43.548477
14298.046875	-45.824310
14341.113281	-46.015968
14384.179688	-45.490681
14427.246094	-43.530174
14470.312500	-41.602245
14513.378906	-41.050941
14556.445312	-42.627930
14599.511719	-43.566528
14642.578125	-39.663624
14685.644531	-37.194553
14728.710938	-37.175938
14771.777344	-37.334675
14814.843750	-36.766380
14857.910156	-35.578220
14900.976562	-35.332317
14944.042969	-36.975250
14987.109375	-38.420269
15030.175781	-37.508549
15073.242188	-37.242737
15116.308594	-37.485596
15159.375000	-41.004593
15202.441406	-42.023605
15245.507812	-40.015350
15288.574219	-39.023514
15331.640625	-38.045891
15374.707031	-38.787903
15417.773438	-41.295628
15460.839844	-41.227680
15503.906250	-38.729820
15546.972656	-40.794643
15590.039062	-38.621761
15633.105469	-35.809456
15676.171875	-35.487423
15719.238281	-39.334717
15762.304688	-44.296429
15805.371094	-40.975147
15848.437500	-36.739872
15891.503906	-35.163170
15934.570312	-35.005833
15977.636719	-34.362003
16020.703125	-36.451645
16063.769531	-35.998466
16106.835938	-36.243931
16149.902344	-39.140244
16192.968750	-39.203892
16236.035156	-38.877682
16279.101562	-39.464096
16322.167969	-39.324886
16365.234375	-39.546246
16408.300781	-39.016094
16451.367188	-37.138645
16494.433594	-36.703594
16537.500000	-36.152634
16580.566406	-35.638660
16623.632812	-37.853409
16666.699219	-38.396423
16709.765625	-38.491169
16752.832031	-39.849201
16795.898438	-41.392445
16838.964844	-41.005157
16882.031250	-40.666119
16925.097656	-40.446335
16968.164062	-37.082642
17011.230469	-35.155231
17054.296875	-35.817307
17097.363281	-37.013737
17140.429688	-35.900604
17183.496094	-34.694305
17226.562500	-34.620407
17269.628906	-36.040688
17312.695312	-37.697620
17355.761719	-38.292538
17398.828125	-38.090363
17441.894531	-38.541904
17484.960938	-39.589245
17528.027344	-40.487129
17571.093750	-42.161026
17614.160156	-41.748936
17657.226562	-39.323017
17700.292969	-37.269630
17743.359375	-36.350445
17786.425781	-36.837311
17829.492188	-37.684280
17872.558594	-36.293343
17915.625000	-35.576797
17958.691406	-36.580887
18001.757812	-37.306942
18044.824219	-37.383827
18087.890625	-36.835564
18130.957031	-37.640385
18174.023438	-38.437325
18217.089844	-37.940140
18260.156250	-38.360081
18303.222656	-37.843365
18346.289062	-36.355217
18389.355469	-34.314899
18432.421875	-33.017292
18475.488281	-33.109463
18518.554688	-34.648754
18561.621094	-35.963051
18604.687500	-34.874996
18647.753906	-34.424938
18690.820312	-36.258770
18733.886719	-38.104744
18776.953125	-39.740105
18820.019531	-41.341270
18863.085938	-41.410545
18906.152344	-38.973755
18949.218750	-35.760551
18992.285156	-34.510788
19035.351562	-36.412418
19078.417969	-37.945786
19121.484375	-37.028477
19164.550781	-37.116238
19207.617188	-36.498184
19250.683594	-37.872257
19293.750000	-41.257298
19336.816406	-41.532722
19379.882812	-38.752140
19422.949219	-36.909496
19466.015625	-37.219189
19509.082031	-40.377464
19552.148438	-39.533875
19595.214844	-39.115398
19638.281250	-39.700394
19681.347656	-38.916546
19724.414062	-38.682751
19767.480469	-37.802738
19810.546875	-35.840649
19853.613281	-35.340832
19896.679688	-36.631790
19939.746094	-38.709267
19982.812500	-39.593311
20025.878906	-41.049469
20068.945312	-41.050167
20112.011719	-41.028282
20155.078125	-41.244362
20198.144531	-40.529377
20241.210938	-39.943790
20284.277344	-39.264519
20327.343750	-39.019718
20370.410156	-38.850605
20413.476562	-38.757057
20456.542969	-39.208153
20499.609375	-40.744156
20542.675781	-43.331799
20585.742188	-48.454525
20628.808594	-48.710751
20671.875000	-41.918667
20714.941406	-39.770241
20758.007812	-41.285168
20801.074219	-44.266487
20844.140625	-45.242779
20887.207031	-45.206268
20930.273438	-45.927738
20973.339844	-44.915112
21016.406250	-44.572227
21059.472656	-45.127266
21102.539062	-45.345352
21145.605469	-45.937637
21188.671875	-48.881996
21231.738281	-47.759247
21274.804688	-44.046341
21317.871094	-43.016296
21360.937500	-44.031563
21404.003906	-46.083878
21447.070312	-45.789829
21490.136719	-45.428967
21533.203125	-47.285660
21576.269531	-45.571697
21619.335938	-43.678032
21662.402344	-42.655418
21705.468750	-44.296104
21748.535156	-46.750069
21791.601562	-48.622257
21834.667969	-47.428780
21877.734375	-46.471497
21920.800781	-46.688530
21963.867188	-50.172539
22006.933594	-54.261375
