周波数 (Hz)	レベル (dB)
43.066406	-30.656708
86.132812	-29.327839
129.199219	-30.753477
172.265625	-35.175716
215.332031	-38.669720
258.398438	-42.370579
301.464844	-45.307674
344.531250	-46.706905
387.597656	-44.637360
430.664062	-44.023754
473.730469	-45.693874
516.796875	-49.440189
559.863281	-53.734589
602.929688	-57.458668
645.996094	-59.742504
689.062500	-56.502998
732.128906	-57.574017
775.195312	-59.817318
818.261719	-59.770973
861.328125	-60.855816
904.394531	-59.277954
947.460938	-57.472988
990.527344	-57.067997
1033.593750	-56.685513
1076.660156	-57.357300
1119.726562	-56.568420
1162.792969	-57.284206
1205.859375	-58.772655
1248.925781	-57.163517
1291.992188	-53.319241
1335.058594	-53.380157
1378.125000	-56.297253
1421.191406	-58.153126
1464.257812	-57.453304
1507.324219	-58.639950
1550.390625	-56.779316
1593.457031	-55.373280
1636.523438	-55.345936
1679.589844	-56.822674
1722.656250	-56.303440
1765.722656	-54.414825
1808.789062	-53.224140
1851.855469	-54.373047
1894.921875	-55.568665
1937.988281	-52.773586
1981.054688	-51.842205
2024.121094	-52.382248
2067.187500	-54.186459
2110.253906	-53.948048
2153.320312	-55.567516
2196.386719	-56.068939
2239.453125	-53.755005
2282.519531	-51.952168
2325.585938	-51.861519
2368.652344	-49.218758
2411.718750	-50.317966
2454.785156	-50.926140
2497.851562	-51.463238
2540.917969	-53.333744
2583.984375	-51.641220
2627.050781	-50.779049
2670.117188	-50.254463
2713.183594	-49.343071
2756.250000	-49.663620
2799.316406	-50.924961
2842.382812	-53.066143
2885.449219	-54.773151
2928.515625	-52.387810
2971.582031	-51.889393
3014.648438	-51.023838
3057.714844	-49.196026
3100.781250	-49.106674
3143.847656	-48.900780
3186.914062	-48.253372
3229.980469	-47.195175
3273.046875	-48.327618
3316.113281	-49.549217
3359.179688	-49.675121
3402.246094	-48.633335
3445.312500	-47.849037
3488.378906	-48.152767
3531.445312	-48.740147
3574.511719	-50.040245
3617.578125	-48.797691
3660.644531	-48.010719
3703.710938	-47.376247
3746.777344	-47.233566
3789.843750	-47.439709
3832.910156	-48.575294
3875.976562	-49.890320
3919.042969	-52.409645
3962.109375	-52.533871
4005.175781	-52.887592
4048.242188	-52.384430
4091.308594	-54.220192
4134.375000	-55.766880
4177.441406	-52.919724
4220.507812	-50.802464
4263.574219	-51.659294
4306.640625	-51.144333
4349.707031	-49.552818
4392.773438	-48.653702
4435.839844	-49.097515
4478.906250	-50.380032
4521.972656	-50.331432
4565.039062	-51.534054
4608.105469	-52.553577
4651.171875	-52.891743
4694.238281	-51.280170
4737.304688	-48.410698
4780.371094	-48.523319
4823.437500	-49.008614
4866.503906	-48.010365
4909.570312	-49.205616
4952.636719	-51.789616
4995.703125	-50.685223
5038.769531	-51.979752
5081.835938	-53.020374
5124.902344	-53.999535
5167.968750	-55.122875
5211.035156	-54.608028
5254.101562	-54.549072
5297.167969	-54.029663
5340.234375	-51.853691
5383.300781	-51.677864
5426.367188	-52.752304
5469.433594	-52.686954
5512.500000	-50.391430
5555.566406	-49.722000
5598.632812	-50.654190
5641.699219	-51.675766
5684.765625	-51.583988
5727.832031	-52.518600
5770.898438	-55.128105
5813.964844	-54.156254
5857.031250	-52.629482
5900.097656	-53.677773
5943.164062	-55.417141
5986.230469	-51.160339
6029.296875	-50.648083
6072.363281	-52.025959
6115.429688	-53.170811
6158.496094	-54.661217
6201.562500	-53.864796
6244.628906	-54.874283
6287.695312	-56.094807
6330.761719	-53.052204
6373.828125	-50.244701
6416.894531	-51.508015
6459.960938	-52.144180
6503.027344	-53.960148
6546.093750	-53.892925
6589.160156	-53.949574
6632.226562	-54.335285
6675.292969	-54.640759
6718.359375	-54.051373
6761.425781	-54.473637
6804.492188	-56.646389
6847.558594	-55.968636
6890.625000	-51.964352
6933.691406	-50.159336
6976.757812	-48.301689
7019.824219	-47.803780
7062.890625	-49.262634
7105.957031	-50.936073
7149.023438	-52.007057
7192.089844	-49.725609
7235.156250	-47.695030
7278.222656	-47.997921
7321.289062	-49.983547
7364.355469	-51.786266
7407.421875	-50.206112
7450.488281	-49.320660
7493.554688	-49.185966
7536.621094	-51.645031
7579.687500	-53.633472
7622.753906	-54.309303
7665.820312	-54.262516
7708.886719	-56.287281
7751.953125	-54.753090
7795.019531	-55.705173
7838.085938	-57.256821
7881.152344	-58.393959
7924.218750	-57.658783
7967.285156	-56.397366
8010.351562	-53.805855
8053.417969	-53.676777
8096.484375	-53.036469
8139.550781	-53.096767
8182.617188	-54.755249
8225.683594	-55.539318
8268.750000	-54.821262
8311.816406	-53.688229
8354.882812	-53.542587
8397.949219	-53.498802
8441.015625	-53.966763
8484.082031	-52.556316
8527.148438	-51.639809
8570.214844	-51.516254
8613.281250	-51.554119
8656.347656	-52.117947
8699.414062	-52.029068
8742.480469	-52.119953
8785.546875	-53.578777
8828.613281	-55.397385
8871.679688	-55.643787
8914.746094	-55.616077
8957.812500	-53.616299
9000.878906	-50.783428
9043.945312	-49.896389
9087.011719	-52.640633
9130.078125	-53.803448
9173.144531	-53.273796
9216.210938	-53.364826
9259.277344	-52.374588
9302.343750	-52.456554
9345.410156	-51.941746
9388.476562	-52.595249
9431.542969	-53.860031
9474.609375	-53.193344
9517.675781	-52.873894
9560.742188	-50.930401
9603.808594	-48.560467
9646.875000	-48.251377
9689.941406	-50.114521
9733.007812	-51.841461
9776.074219	-53.833668
9819.140625	-54.810890
9862.207031	-54.399555
9905.273438	-52.320316
9948.339844	-51.576946
9991.406250	-52.119179
10034.472656	-51.046535
10077.539062	-52.111835
10120.605469	-51.946686
10163.671875	-50.161049
10206.738281	-50.559101
10249.804688	-50.035904
10292.871094	-48.287956
10335.937500	-46.911381
10379.003906	-46.984695
10422.070312	-46.135418
10465.136719	-47.968327
10508.203125	-48.437553
10551.269531	-47.318275
10594.335938	-46.083824
10637.402344	-46.352314
10680.468750	-47.477509
10723.535156	-49.675728
10766.601562	-49.288719
10809.667969	-46.564281
10852.734375	-44.758022
10895.800781	-44.129913
10938.867188	-45.627338
10981.933594	-47.985626
11025.000000	-47.607449
11068.066406	-46.637058
11111.132812	-46.842201
11154.199219	-46.626720
11197.265625	-46.759930
11240.332031	-48.227833
11283.398438	-49.567158
11326.464844	-50.221195
11369.531250	-48.401760
11412.597656	-47.309486
11455.664062	-47.813099
11498.730469	-49.221951
11541.796875	-51.419765
11584.863281	-53.417698
11627.929688	-54.878593
11670.996094	-53.473686
11714.062500	-52.096500
11757.128906	-49.255226
11800.195312	-47.219501
11843.261719	-47.051823
11886.328125	-48.230381
11929.394531	-48.904823
11972.460938	-49.094448
12015.527344	-50.110058
12058.593750	-51.115417
12101.660156	-50.430309
12144.726562	-47.313004
12187.792969	-45.841007
12230.859375	-47.808601
12273.925781	-50.286278
12316.992188	-52.642254
12360.058594	-50.118973
12403.125000	-50.314133
12446.191406	-50.589676
12489.257812	-48.842342
12532.324219	-47.771893
12575.390625	-47.457794
12618.457031	-47.539093
12661.523438	-49.640640
12704.589844	-50.908463
12747.656250	-50.611526
12790.722656	-49.625954
12833.789062	-47.027267
12876.855469	-47.296116
12919.921875	-48.495304
12962.988281	-47.950924
13006.054688	-46.776680
13049.121094	-45.805923
13092.187500	-46.599751
13135.253906	-46.430664
13178.320312	-45.816467
13221.386719	-46.901356
13264.453125	-45.719330
13307.519531	-43.964645
13350.585938	-44.437889
13393.652344	-46.077801
13436.718750	-46.769421
13479.785156	-47.207664
13522.851562	-47.698418
13565.917969	-44.735630
13608.984375	-42.918961
13652.050781	-43.492699
13695.117188	-44.673702
13738.183594	-44.507191
13781.250000	-44.338188
13824.316406	-45.353878
13867.382812	-42.907631
13910.449219	-41.505356
13953.515625	-41.341408
13996.582031	-42.776794
14039.648438	-44.614449
14082.714844	-44.559635
14125.781250	-45.446407
14168.847656	-45.095726
14211.914062	-44.071449
14254.980469	-44.180771
14298.046875	-45.053974
14341.113281	-44.380058
14384.179688	-45.038826
14427.246094	-46.660404
14470.312500	-46.486519
14513.378906	-48.847809
14556.445312	-48.557804
14599.511719	-45.574898
14642.578125	-43.153332
14685.644531	-42.678463
14728.710938	-43.008720
14771.777344	-42.382595
14814.843750	-41.350163
14857.910156	-40.933624
14900.976562	-41.195633
14944.042969	-44.321823
14987.109375	-47.109791
15030.175781	-45.621880
15073.242188	-45.451927
15116.308594	-44.333683
15159.375000	-42.330200
15202.441406	-41.577724
15245.507812	-43.377888
15288.574219	-45.434978
15331.640625	-46.138405
15374.707031	-47.171814
15417.773438	-46.877560
15460.839844	-46.844505
15503.906250	-48.615593
15546.972656	-45.667141
15590.039062	-42.935116
15633.105469	-42.057877
15676.171875	-41.826748
15719.238281	-41.226501
15762.304688	-38.768955
15805.371094	-38.971058
15848.437500	-42.204033
15891.503906	-44.879589
15934.570312	-44.878479
15977.636719	-45.604481
16020.703125	-45.302341
16063.769531	-44.717796
16106.835938	-44.371254
16149.902344	-42.744732
16192.968750	-40.367580
16236.035156	-40.389076
16279.101562	-42.005913
16322.167969	-43.192535
16365.234375	-41.855053
16408.300781	-40.656727
16451.367188	-41.788326
16494.433594	-42.668579
16537.500000	-45.696400
16580.566406	-45.363266
16623.632812	-44.297520
16666.699219	-43.270927
16709.765625	-41.899082
16752.832031	-40.448929
16795.898438	-40.473083
16838.964844	-41.272343
16882.031250	-43.778854
16925.097656	-48.574608
16968.164062	-43.101444
17011.230469	-39.430782
17054.296875	-39.316074
17097.363281	-38.487106
17140.429688	-39.907291
17183.496094	-42.334541
17226.562500	-42.853325
17269.628906	-42.973110
17312.695312	-43.869205
17355.761719	-44.092567
17398.828125	-44.151768
17441.894531	-44.314133
17484.960938	-45.689537
17528.027344	-47.077724
17571.093750	-44.219624
17614.160156	-43.208904
17657.226562	-43.123238
17700.292969	-44.027214
17743.359375	-44.461895
17786.425781	-43.169762
17829.492188	-43.194210
17872.558594	-44.672832
17915.625000	-46.241013
17958.691406	-46.033497
18001.757812	-46.333313
18044.824219	-47.081406
18087.890625	-45.021286
18130.957031	-43.167259
18174.023438	-42.422146
18217.089844	-42.200344
18260.156250	-41.312122
18303.222656	-41.119129
18346.289062	-42.027283
18389.355469	-42.740551
18432.421875	-42.654324
18475.488281	-42.151928
18518.554688	-43.973679
18561.621094	-45.042534
18604.687500	-42.199913
18647.753906	-41.156445
18690.820312	-40.060661
18733.886719	-39.607216
18776.953125	-42.090569
18820.019531	-43.864563
18863.085938	-44.472462
18906.152344	-44.950146
18949.218750	-43.378975
18992.285156	-40.855255
19035.351562	-39.403690
19078.417969	-41.096142
19121.484375	-44.084564
19164.550781	-46.332043
19207.617188	-46.388287
19250.683594	-45.604015
19293.750000	-46.244476
19336.816406	-48.212551
19379.882812	-48.067719
19422.949219	-47.955116
19466.015625	-48.907871
19509.082031	-46.457443
19552.148438	-47.133896
19595.214844	-48.302071
19638.281250	-47.445652
19681.347656	-47.309647
19724.414062	-48.451160
19767.480469	-46.916389
19810.546875	-44.637108
19853.613281	-43.657185
19896.679688	-42.298409
19939.746094	-42.598366
19982.812500	-43.003235
20025.878906	-44.811653
20068.945312	-48.060352
20112.011719	-48.937130
20155.078125	-48.336811
20198.144531	-47.733517
20241.210938	-46.949055
20284.277344	-45.912727
20327.343750	-45.245941
20370.410156	-44.922009
20413.476562	-44.901878
20456.542969	-44.764690
20499.609375	-47.192322
20542.675781	-46.879696
20585.742188	-46.718689
20628.808594	-47.218052
20671.875000	-48.395615
20714.941406	-47.709469
20758.007812	-47.185596
20801.074219	-48.174778
20844.140625	-47.688576
20887.207031	-48.757339
20930.273438	-49.003658
20973.339844	-44.657352
21016.406250	-42.960701
21059.472656	-44.321861
21102.539062	-46.706192
21145.605469	-48.235245
21188.671875	-49.279865
21231.738281	-49.959621
21274.804688	-49.466412
21317.871094	-47.598816
21360.937500	-48.642590
21404.003906	-49.985485
21447.070312	-51.331215
21490.136719	-51.162380
21533.203125	-48.868053
21576.269531	-48.972511
21619.335938	-49.324623
21662.402344	-50.223785
21705.468750	-52.285633
21748.535156	-52.060368
21791.601562	-51.199299
21834.667969	-50.553089
21877.734375	-49.818249
21920.800781	-50.304825
21963.867188	-52.074818
22006.933594	-53.997746
