周波数 (Hz)	レベル (dB)
43.066406	-28.476397
86.132812	-23.836466
129.199219	-24.951178
172.265625	-31.231182
215.332031	-37.462360
258.398438	-43.931427
301.464844	-43.454052
344.531250	-40.196445
387.597656	-41.062454
430.664062	-40.482407
473.730469	-41.917412
516.796875	-41.411793
559.863281	-41.844521
602.929688	-45.609581
645.996094	-47.505978
689.062500	-44.992268
732.128906	-45.829113
775.195312	-44.638340
818.261719	-41.815788
861.328125	-42.479286
904.394531	-42.315628
947.460938	-42.309479
990.527344	-42.036034
1033.593750	-41.863407
1076.660156	-42.250984
1119.726562	-43.081814
1162.792969	-45.172821
1205.859375	-43.769245
1248.925781	-43.374332
1291.992188	-43.979355
1335.058594	-46.920666
1378.125000	-50.109570
1421.191406	-47.782528
1464.257812	-47.927040
1507.324219	-49.867645
1550.390625	-50.090931
1593.457031	-47.614578
1636.523438	-43.604469
1679.589844	-41.767784
1722.656250	-43.317417
1765.722656	-47.555908
1808.789062	-43.955353
1851.855469	-40.760750
1894.921875	-41.811218
1937.988281	-45.672222
1981.054688	-47.233536
2024.121094	-47.029198
2067.187500	-44.753521
2110.253906	-44.617409
2153.320312	-46.424816
2196.386719	-48.432953
2239.453125	-50.640961
2282.519531	-47.835087
2325.585938	-44.221523
2368.652344	-41.982239
2411.718750	-40.353283
2454.785156	-39.382862
2497.851562	-38.879749
2540.917969	-40.460556
2583.984375	-42.602909
2627.050781	-45.331509
2670.117188	-49.571953
2713.183594	-50.318176
2756.250000	-49.382969
2799.316406	-48.304455
2842.382812	-47.100391
2885.449219	-47.589622
2928.515625	-47.757416
2971.582031	-47.831699
3014.648438	-48.328594
3057.714844	-48.873646
3100.781250	-47.025879
3143.847656	-47.023075
3186.914062	-47.338772
3229.980469	-45.153259
3273.046875	-43.835224
3316.113281	-43.268497
3359.179688	-42.106880
3402.246094	-41.979267
3445.312500	-41.995064
3488.378906	-43.506878
3531.445312	-44.671341
3574.511719	-45.823620
3617.578125	-42.764339
3660.644531	-40.641911
3703.710938	-40.427151
3746.777344	-42.538250
3789.843750	-45.945587
3832.910156	-49.144859
3875.976562	-46.044018
3919.042969	-43.505016
3962.109375	-42.409546
4005.175781	-43.326515
4048.242188	-43.509724
4091.308594	-42.512337
4134.375000	-42.231277
4177.441406	-43.164417
4220.507812	-44.573692
4263.574219	-46.102779
4306.640625	-47.741032
4349.707031	-47.764000
4392.773438	-47.385899
4435.839844	-48.943020
4478.906250	-51.156952
4521.972656	-47.376575
4565.039062	-44.411812
4608.105469	-41.870342
4651.171875	-40.602276
4694.238281	-41.956322
4737.304688	-45.358910
4780.371094	-49.524487
4823.437500	-49.302437
4866.503906	-49.240536
4909.570312	-49.656578
4952.636719	-47.604057
4995.703125	-47.079082
5038.769531	-46.817101
5081.835938	-47.108055
5124.902344	-48.060783
5167.968750	-49.322277
5211.035156	-50.498856
5254.101562	-50.186600
5297.167969	-47.699188
5340.234375	-46.203632
5383.300781	-46.763695
5426.367188	-49.199261
5469.433594	-51.018269
5512.500000	-51.562099
5555.566406	-51.888340
5598.632812	-54.324032
5641.699219	-51.233128
5684.765625	-48.942032
5727.832031	-49.248497
5770.898438	-48.552509
5813.964844	-48.663380
5857.031250	-50.589859
5900.097656	-53.851250
5943.164062	-51.248619
5986.230469	-49.778629
6029.296875	-48.855511
6072.363281	-47.577702
6115.429688	-45.006279
6158.496094	-43.949574
6201.562500	-44.960987
6244.628906	-47.037987
6287.695312	-47.074284
6330.761719	-46.963047
6373.828125	-47.657173
6416.894531	-47.401703
6459.960938	-46.318901
6503.027344	-47.602165
6546.093750	-50.260639
6589.160156	-51.811291
6632.226562	-51.131577
6675.292969	-52.804245
6718.359375	-53.681629
6761.425781	-53.366268
6804.492188	-52.568787
6847.558594	-50.577015
6890.625000	-49.889656
6933.691406	-51.750778
6976.757812	-55.173424
7019.824219	-57.011131
7062.890625	-56.506207
7105.957031	-51.186283
7149.023438	-47.437698
7192.089844	-45.072441
7235.156250	-44.481228
7278.222656	-45.910721
7321.289062	-48.341816
7364.355469	-50.147457
7407.421875	-49.010239
7450.488281	-47.973190
7493.554688	-49.675533
7536.621094	-52.360863
7579.687500	-52.569408
7622.753906	-50.310192
7665.820312	-48.647713
7708.886719	-48.530617
7751.953125	-50.537853
7795.019531	-51.015507
7838.085938	-50.031487
7881.152344	-49.501831
7924.218750	-50.553116
7967.285156	-53.180126
8010.351562	-51.864273
8053.417969	-49.949112
8096.484375	-49.349407
8139.550781	-47.583019
8182.617188	-47.494343
8225.683594	-50.012009
8268.750000	-52.272812
8311.816406	-54.598221
8354.882812	-53.080086
8397.949219	-51.047722
8441.015625	-50.690315
8484.082031	-49.828320
8527.148438	-49.447914
8570.214844	-48.637108
8613.281250	-47.862453
8656.347656	-47.541428
8699.414062	-47.013180
8742.480469	-46.397732
8785.546875	-46.137482
8828.613281	-45.168861
8871.679688	-45.868526
8914.746094	-44.590153
8957.812500	-43.979630
9000.878906	-44.316433
9043.945312	-45.891869
9087.011719	-46.862663
9130.078125	-48.294258
9173.144531	-48.630318
9216.210938	-49.505623
9259.277344	-50.841743
9302.343750	-50.674374
9345.410156	-50.831173
9388.476562	-50.709984
9431.542969	-48.944138
9474.609375	-48.681904
9517.675781	-48.811317
9560.742188	-49.134579
9603.808594	-49.944996
9646.875000	-49.567833
9689.941406	-49.117714
9733.007812	-48.993797
9776.074219	-45.227615
9819.140625	-44.381161
9862.207031	-45.656395
9905.273438	-46.743259
9948.339844	-48.505516
9991.406250	-50.909729
10034.472656	-50.038570
10077.539062	-49.958878
10120.605469	-49.541302
10163.671875	-48.881756
10206.738281	-48.490559
10249.804688	-48.802826
10292.871094	-48.905846
10335.937500	-50.112476
10379.003906	-51.350502
10422.070312	-50.192982
10465.136719	-47.181068
10508.203125	-45.365326
10551.269531	-45.320724
10594.335938	-46.298321
10637.402344	-46.947857
10680.468750	-48.182552
10723.535156	-48.487587
10766.601562	-49.053036
10809.667969	-49.217976
10852.734375	-47.814743
10895.800781	-45.360725
10938.867188	-43.869846
10981.933594	-44.214771
11025.000000	-44.805275
11068.066406	-44.629734
11111.132812	-45.545822
11154.199219	-46.318138
11197.265625	-46.431507
11240.332031	-46.027473
11283.398438	-46.274433
11326.464844	-45.627659
11369.531250	-44.582298
11412.597656	-43.014317
11455.664062	-43.964039
11498.730469	-48.601227
11541.796875	-46.874832
11584.863281	-45.398369
11627.929688	-44.075539
11670.996094	-43.244698
11714.062500	-42.181377
11757.128906	-41.205143
11800.195312	-41.580288
11843.261719	-42.254211
11886.328125	-42.884403
11929.394531	-44.387127
11972.460938	-45.654762
12015.527344	-47.356888
12058.593750	-50.475533
12101.660156	-46.804771
12144.726562	-44.453300
12187.792969	-44.933617
12230.859375	-43.323895
12273.925781	-43.626331
12316.992188	-45.222019
12360.058594	-48.050663
12403.125000	-47.838921
12446.191406	-43.733051
12489.257812	-43.095135
12532.324219	-42.660088
12575.390625	-40.753983
12618.457031	-38.706230
12661.523438	-38.269791
12704.589844	-39.446491
12747.656250	-40.580124
12790.722656	-42.488316
12833.789062	-44.174435
12876.855469	-42.887230
12919.921875	-42.181507
12962.988281	-42.011433
13006.054688	-42.034950
13049.121094	-42.031311
13092.187500	-40.813553
13135.253906	-39.945896
13178.320312	-39.886391
13221.386719	-41.012486
13264.453125	-43.934219
13307.519531	-43.370823
13350.585938	-41.747692
13393.652344	-41.564430
13436.718750	-42.423824
13479.785156	-42.375484
13522.851562	-40.086025
13565.917969	-39.924397
13608.984375	-41.269272
13652.050781	-40.393127
13695.117188	-40.171635
13738.183594	-41.244770
13781.250000	-42.894501
13824.316406	-43.191151
13867.382812	-42.126049
13910.449219	-44.026291
13953.515625	-46.907398
13996.582031	-48.525864
14039.648438	-45.322144
14082.714844	-41.559048
14125.781250	-40.863567
14168.847656	-40.781773
14211.914062	-40.293503
14254.980469	-41.107502
14298.046875	-41.536991
14341.113281	-40.468716
14384.179688	-41.423752
14427.246094	-43.584541
14470.312500	-43.412712
14513.378906	-41.966549
14556.445312	-40.494255
14599.511719	-38.823837
14642.578125	-37.985725
14685.644531	-37.838627
14728.710938	-37.915703
14771.777344	-37.673008
14814.843750	-37.010857
14857.910156	-36.248585
14900.976562	-36.374371
14944.042969	-37.043346
14987.109375	-39.204422
15030.175781	-41.543510
15073.242188	-42.790470
15116.308594	-42.428036
15159.375000	-41.619057
15202.441406	-39.884224
15245.507812	-38.611618
15288.574219	-40.543198
15331.640625	-44.690723
15374.707031	-46.093956
15417.773438	-45.164021
15460.839844	-43.200764
15503.906250	-40.766399
15546.972656	-40.902164
15590.039062	-42.903278
15633.105469	-44.587383
15676.171875	-42.143093
15719.238281	-41.597965
15762.304688	-39.328945
15805.371094	-38.518547
15848.437500	-40.741951
15891.503906	-39.395840
15934.570312	-37.109268
15977.636719	-37.799351
16020.703125	-38.640537
16063.769531	-37.230545
16106.835938	-37.123413
16149.902344	-38.333809
16192.968750	-40.882236
16236.035156	-41.519314
16279.101562	-37.876137
16322.167969	-34.862495
16365.234375	-34.471844
16408.300781	-37.289639
16451.367188	-36.700451
16494.433594	-34.633934
16537.500000	-35.023743
16580.566406	-38.124187
16623.632812	-41.300507
16666.699219	-39.022964
16709.765625	-36.663986
16752.832031	-36.917431
16795.898438	-38.059910
16838.964844	-35.586102
16882.031250	-33.633587
16925.097656	-33.097919
16968.164062	-33.247562
17011.230469	-33.489162
17054.296875	-34.417381
17097.363281	-34.614273
17140.429688	-34.623299
17183.496094	-35.071762
17226.562500	-35.604034
17269.628906	-35.927250
17312.695312	-35.777405
17355.761719	-36.136166
17398.828125	-35.627937
17441.894531	-36.763763
17484.960938	-39.060139
17528.027344	-40.727097
17571.093750	-41.437500
17614.160156	-41.261002
17657.226562	-41.910080
17700.292969	-39.409779
17743.359375	-36.578617
17786.425781	-35.881622
17829.492188	-36.348827
17872.558594	-37.786922
17915.625000	-38.493797
17958.691406	-36.708427
18001.757812	-35.822258
18044.824219	-35.756050
18087.890625	-37.720772
18130.957031	-40.488918
18174.023438	-39.638653
18217.089844	-38.800613
18260.156250	-41.308758
18303.222656	-40.666885
18346.289062	-37.993153
18389.355469	-37.002693
18432.421875	-38.259712
18475.488281	-39.692204
18518.554688	-39.499657
18561.621094	-39.395153
18604.687500	-40.422981
18647.753906	-41.083874
18690.820312	-41.820297
18733.886719	-41.706947
18776.953125	-39.850269
18820.019531	-40.722855
18863.085938	-42.422970
18906.152344	-43.764610
18949.218750	-44.645897
18992.285156	-41.480495
19035.351562	-40.703178
19078.417969	-41.611355
19121.484375	-40.593235
19164.550781	-39.340263
19207.617188	-38.658745
19250.683594	-39.583157
19293.750000	-41.112537
19336.816406	-44.024498
19379.882812	-45.986595
19422.949219	-45.974529
19466.015625	-46.970959
19509.082031	-49.169838
19552.148438	-45.797153
19595.214844	-44.343811
19638.281250	-42.966370
19681.347656	-42.529312
19724.414062	-45.462849
19767.480469	-46.574646
19810.546875	-42.662457
19853.613281	-42.790092
19896.679688	-44.327026
19939.746094	-45.275845
19982.812500	-44.445274
20025.878906	-42.480286
20068.945312	-41.018532
20112.011719	-40.403618
20155.078125	-39.786594
20198.144531	-40.556225
20241.210938	-41.707581
20284.277344	-41.903023
20327.343750	-42.319000
20370.410156	-42.823109
20413.476562	-43.019783
20456.542969	-43.555660
20499.609375	-43.860424
20542.675781	-42.978985
20585.742188	-40.534126
20628.808594	-39.914444
20671.875000	-42.556606
20714.941406	-44.924252
20758.007812	-42.252087
20801.074219	-40.622467
20844.140625	-39.326027
20887.207031	-39.008720
20930.273438	-40.577091
20973.339844	-43.078163
21016.406250	-41.711987
21059.472656	-39.233707
21102.539062	-39.278648
21145.605469	-41.215996
21188.671875	-45.187946
21231.738281	-52.691601
21274.804688	-48.580070
21317.871094	-44.423748
21360.937500	-44.311520
21404.003906	-45.301476
21447.070312	-44.160206
21490.136719	-44.070530
21533.203125	-46.476635
21576.269531	-48.181648
21619.335938	-45.794975
21662.402344	-45.851852
21705.468750	-48.974445
21748.535156	-50.747967
21791.601562	-49.657276
21834.667969	-49.577469
21877.734375	-51.542801
21920.800781	-52.684914
21963.867188	-52.590702
22006.933594	-55.239540
