周波数 (Hz)	レベル (dB)
43.066406	-26.026937
86.132812	-23.529058
129.199219	-24.977123
172.265625	-31.673092
215.332031	-37.020607
258.398438	-40.909504
301.464844	-39.239559
344.531250	-36.915516
387.597656	-35.513947
430.664062	-35.876534
473.730469	-38.727314
516.796875	-41.920975
559.863281	-45.260342
602.929688	-48.001122
645.996094	-50.223629
689.062500	-51.870964
732.128906	-46.444851
775.195312	-42.149288
818.261719	-40.764992
861.328125	-42.232853
904.394531	-44.594978
947.460938	-46.208515
990.527344	-45.128448
1033.593750	-43.720028
1076.660156	-44.798431
1119.726562	-47.664211
1162.792969	-51.023605
1205.859375	-51.457050
1248.925781	-47.206573
1291.992188	-45.544125
1335.058594	-45.242912
1378.125000	-41.523415
1421.191406	-40.605881
1464.257812	-43.245781
1507.324219	-50.118507
1550.390625	-45.938347
1593.457031	-41.989079
1636.523438	-41.234043
1679.589844	-41.312363
1722.656250	-40.654121
1765.722656	-39.552063
1808.789062	-37.876659
1851.855469	-37.958954
1894.921875	-40.368168
1937.988281	-41.504467
1981.054688	-41.475567
2024.121094	-42.386738
2067.187500	-45.277504
2110.253906	-52.879017
2153.320312	-52.067883
2196.386719	-50.838165
2239.453125	-51.375896
2282.519531	-50.801079
2325.585938	-52.274731
2368.652344	-52.491436
2411.718750	-47.637009
2454.785156	-47.293423
2497.851562	-46.621914
2540.917969	-45.876663
2583.984375	-47.810925
2627.050781	-52.089539
2670.117188	-57.999550
2713.183594	-53.917439
2756.250000	-52.863857
2799.316406	-47.221577
2842.382812	-42.763329
2885.449219	-42.554504
2928.515625	-44.820461
2971.582031	-48.444256
3014.648438	-52.316494
3057.714844	-53.287750
3100.781250	-53.826347
3143.847656	-50.130932
3186.914062	-45.184383
3229.980469	-42.618431
3273.046875	-41.726799
3316.113281	-41.425915
3359.179688	-42.047974
3402.246094	-42.332481
3445.312500	-43.429379
3488.378906	-44.330574
3531.445312	-47.041164
3574.511719	-48.324730
3617.578125	-49.461040
3660.644531	-52.600204
3703.710938	-48.805077
3746.777344	-45.544716
3789.843750	-44.504528
3832.910156	-43.995239
3875.976562	-43.228424
3919.042969	-41.967365
3962.109375	-40.247097
4005.175781	-39.462116
4048.242188	-40.824722
4091.308594	-42.786015
4134.375000	-44.042309
4177.441406	-44.802189
4220.507812	-44.982487
4263.574219	-43.714806
4306.640625	-41.617943
4349.707031	-40.787624
4392.773438	-41.193581
4435.839844	-42.124588
4478.906250	-42.874630
4521.972656	-43.846008
4565.039062	-46.240757
4608.105469	-50.894707
4651.171875	-53.540039
4694.238281	-47.405514
4737.304688	-45.033268
4780.371094	-45.878578
4823.437500	-48.263771
4866.503906	-49.130569
4909.570312	-48.887390
4952.636719	-45.617558
4995.703125	-43.319511
5038.769531	-42.173038
5081.835938	-42.208027
5124.902344	-43.873260
5167.968750	-45.971786
5211.035156	-45.358917
5254.101562	-45.301495
5297.167969	-46.508659
5340.234375	-47.166870
5383.300781	-45.493645
5426.367188	-44.324677
5469.433594	-45.361824
5512.500000	-47.139374
5555.566406	-49.461433
5598.632812	-49.186268
5641.699219	-46.916977
5684.765625	-46.585754
5727.832031	-47.930691
5770.898438	-48.140568
5813.964844	-46.686771
5857.031250	-46.885632
5900.097656	-46.834408
5943.164062	-47.589466
5986.230469	-48.026505
6029.296875	-47.359348
6072.363281	-46.126778
6115.429688	-46.149242
6158.496094	-47.115860
6201.562500	-48.079609
6244.628906	-48.556526
6287.695312	-48.536175
6330.761719	-50.704823
6373.828125	-52.953991
6416.894531	-51.797680
6459.960938	-52.388870
6503.027344	-49.875034
6546.093750	-47.568184
6589.160156	-46.903027
6632.226562	-47.930252
6675.292969	-49.281796
6718.359375	-48.733292
6761.425781	-48.963799
6804.492188	-51.755589
6847.558594	-52.119549
6890.625000	-50.365643
6933.691406	-51.512486
6976.757812	-51.202480
7019.824219	-46.537937
7062.890625	-42.970535
7105.957031	-41.631481
7149.023438	-41.301056
7192.089844	-40.727856
7235.156250	-40.920891
7278.222656	-41.752445
7321.289062	-43.242493
7364.355469	-44.502998
7407.421875	-44.454281
7450.488281	-46.145580
7493.554688	-49.965908
7536.621094	-49.808266
7579.687500	-51.964874
7622.753906	-53.355919
7665.820312	-54.944118
7708.886719	-55.520058
7751.953125	-53.591606
7795.019531	-53.638031
7838.085938	-53.048252
7881.152344	-52.356052
7924.218750	-51.764778
7967.285156	-50.992413
8010.351562	-49.663410
8053.417969	-50.455513
8096.484375	-53.596035
8139.550781	-53.358734
8182.617188	-51.896675
8225.683594	-51.511833
8268.750000	-48.231037
8311.816406	-46.922905
8354.882812	-50.157463
8397.949219	-52.596031
8441.015625	-56.010345
8484.082031	-55.355198
8527.148438	-55.529675
8570.214844	-54.961586
8613.281250	-50.481571
8656.347656	-49.787460
8699.414062	-50.877953
8742.480469	-50.365738
8785.546875	-48.095810
8828.613281	-47.010300
8871.679688	-46.910130
8914.746094	-48.582497
8957.812500	-50.165916
9000.878906	-50.186962
9043.945312	-47.026978
9087.011719	-45.703888
9130.078125	-46.016983
9173.144531	-48.610439
9216.210938	-49.021591
9259.277344	-48.454449
9302.343750	-50.026882
9345.410156	-49.479881
9388.476562	-46.655891
9431.542969	-46.812920
9474.609375	-48.388977
9517.675781	-46.882374
9560.742188	-43.719028
9603.808594	-42.908710
9646.875000	-43.534603
9689.941406	-46.409382
9733.007812	-48.844078
9776.074219	-46.475620
9819.140625	-46.336468
9862.207031	-46.655849
9905.273438	-48.312428
9948.339844	-47.699253
9991.406250	-44.338196
10034.472656	-44.003712
10077.539062	-45.153690
10120.605469	-45.024712
10163.671875	-46.121838
10206.738281	-43.978825
10249.804688	-42.554607
10292.871094	-45.524277
10335.937500	-46.867359
10379.003906	-45.661926
10422.070312	-44.062244
10465.136719	-43.999084
10508.203125	-45.420086
10551.269531	-49.312469
10594.335938	-52.697239
10637.402344	-47.443420
10680.468750	-45.173016
10723.535156	-45.786446
10766.601562	-49.067844
10809.667969	-49.575413
10852.734375	-47.469784
10895.800781	-45.296219
10938.867188	-43.941795
10981.933594	-44.795712
11025.000000	-50.006939
11068.066406	-55.101002
11111.132812	-48.577778
11154.199219	-45.175507
11197.265625	-43.301395
11240.332031	-41.953785
11283.398438	-39.362980
11326.464844	-38.633495
11369.531250	-40.223591
11412.597656	-42.794342
11455.664062	-43.695793
11498.730469	-43.290497
11541.796875	-42.992756
11584.863281	-42.180904
11627.929688	-40.783508
11670.996094	-39.600910
11714.062500	-39.232243
11757.128906	-39.534081
11800.195312	-40.437767
11843.261719	-41.016933
11886.328125	-40.441483
11929.394531	-39.676098
11972.460938	-38.923626
12015.527344	-38.711655
12058.593750	-38.509846
12101.660156	-38.505501
12144.726562	-40.503471
12187.792969	-44.117691
12230.859375	-48.238701
12273.925781	-50.699783
12316.992188	-49.859108
12360.058594	-47.923615
12403.125000	-47.147099
12446.191406	-45.929577
12489.257812	-45.132378
12532.324219	-44.852100
12575.390625	-43.908974
12618.457031	-42.202019
12661.523438	-41.286995
12704.589844	-41.500496
12747.656250	-41.870052
12790.722656	-43.557785
12833.789062	-45.535469
12876.855469	-44.691841
12919.921875	-42.924610
12962.988281	-40.796211
13006.054688	-39.487286
13049.121094	-39.185604
13092.187500	-40.401379
13135.253906	-41.247814
13178.320312	-42.207668
13221.386719	-43.656193
13264.453125	-43.284927
13307.519531	-43.894730
13350.585938	-42.442665
13393.652344	-41.469292
13436.718750	-42.465034
13479.785156	-45.056847
13522.851562	-40.505230
13565.917969	-38.962894
13608.984375	-39.592648
13652.050781	-42.015057
13695.117188	-43.882355
13738.183594	-41.724529
13781.250000	-41.116425
13824.316406	-42.142014
13867.382812	-41.642422
13910.449219	-40.704288
13953.515625	-38.900063
13996.582031	-37.372303
14039.648438	-37.704208
14082.714844	-38.985249
14125.781250	-39.076557
14168.847656	-39.815971
14211.914062	-41.055794
14254.980469	-41.159317
14298.046875	-40.199680
14341.113281	-37.522690
14384.179688	-36.175804
14427.246094	-36.973175
14470.312500	-38.831356
14513.378906	-40.255314
14556.445312	-39.869568
14599.511719	-39.790894
14642.578125	-36.324249
14685.644531	-34.921570
14728.710938	-35.830490
14771.777344	-37.791870
14814.843750	-40.021305
14857.910156	-40.064289
14900.976562	-38.273869
14944.042969	-39.217690
14987.109375	-39.922577
15030.175781	-41.020424
15073.242188	-42.749287
15116.308594	-39.705807
15159.375000	-36.600327
15202.441406	-34.903584
15245.507812	-34.831051
15288.574219	-36.583015
15331.640625	-38.469097
15374.707031	-37.917194
15417.773438	-37.823418
15460.839844	-39.105541
15503.906250	-40.139469
15546.972656	-37.861332
15590.039062	-36.373436
15633.105469	-35.944588
15676.171875	-37.512634
15719.238281	-37.449295
15762.304688	-35.687134
15805.371094	-34.573517
15848.437500	-34.479137
15891.503906	-36.136600
15934.570312	-37.954700
15977.636719	-37.468739
16020.703125	-36.706802
16063.769531	-36.423550
16106.835938	-35.280632
16149.902344	-35.424599
16192.968750	-36.866989
16236.035156	-38.333996
16279.101562	-37.564659
16322.167969	-36.741024
16365.234375	-36.619019
16408.300781	-36.678387
16451.367188	-37.078362
16494.433594	-38.411987
16537.500000	-38.042427
16580.566406	-35.534782
16623.632812	-34.700741
16666.699219	-37.488499
16709.765625	-41.791592
16752.832031	-41.022625
16795.898438	-39.100590
16838.964844	-39.851261
16882.031250	-36.883339
16925.097656	-33.014111
16968.164062	-30.881437
17011.230469	-29.931250
17054.296875	-30.283066
17097.363281	-32.481274
17140.429688	-34.341320
17183.496094	-36.280998
17226.562500	-36.351608
17269.628906	-35.949718
17312.695312	-35.742989
17355.761719	-35.981415
17398.828125	-35.366165
17441.894531	-35.356674
17484.960938	-36.829887
17528.027344	-36.331787
17571.093750	-34.214588
17614.160156	-34.299660
17657.226562	-36.247124
17700.292969	-37.399651
17743.359375	-35.603672
17786.425781	-33.817165
17829.492188	-33.640011
17872.558594	-35.268936
17915.625000	-36.520123
17958.691406	-36.911480
18001.757812	-38.593540
18044.824219	-43.160027
18087.890625	-41.680161
18130.957031	-38.968456
18174.023438	-38.204060
18217.089844	-38.997925
18260.156250	-39.033844
18303.222656	-39.026321
18346.289062	-39.810799
18389.355469	-39.030281
18432.421875	-38.122898
18475.488281	-37.900822
18518.554688	-37.599243
18561.621094	-37.391556
18604.687500	-37.092621
18647.753906	-38.898212
18690.820312	-41.504120
18733.886719	-39.266247
18776.953125	-37.449921
18820.019531	-37.210289
18863.085938	-36.791328
18906.152344	-36.211861
18949.218750	-36.310638
18992.285156	-38.206848
19035.351562	-39.770584
19078.417969	-38.402100
19121.484375	-37.850430
19164.550781	-38.117233
19207.617188	-39.653831
19250.683594	-40.648712
19293.750000	-38.737644
19336.816406	-37.366245
19379.882812	-38.581970
19422.949219	-41.088993
19466.015625	-42.884190
19509.082031	-43.730701
19552.148438	-42.351212
19595.214844	-42.358555
19638.281250	-43.968739
19681.347656	-45.527283
19724.414062	-43.689121
19767.480469	-39.623981
19810.546875	-37.735348
19853.613281	-38.332748
19896.679688	-40.900784
19939.746094	-41.964138
19982.812500	-38.628822
20025.878906	-36.614456
20068.945312	-36.120178
20112.011719	-35.657082
20155.078125	-37.541290
20198.144531	-39.151070
20241.210938	-38.873367
20284.277344	-38.187561
20327.343750	-38.553799
20370.410156	-39.089355
20413.476562	-40.115730
20456.542969	-40.321884
20499.609375	-40.545044
20542.675781	-40.709499
20585.742188	-41.644276
20628.808594	-41.819450
20671.875000	-40.849483
20714.941406	-40.502815
20758.007812	-40.095764
20801.074219	-40.091560
20844.140625	-40.978729
20887.207031	-42.183220
20930.273438	-40.331825
20973.339844	-38.337742
21016.406250	-38.920208
21059.472656	-41.549988
21102.539062	-45.883430
21145.605469	-46.594154
21188.671875	-44.868938
21231.738281	-44.088200
21274.804688	-46.888535
21317.871094	-48.760559
21360.937500	-49.114666
21404.003906	-49.448639
21447.070312	-50.618149
21490.136719	-50.838600
21533.203125	-46.010494
21576.269531	-44.324287
21619.335938	-46.229900
21662.402344	-51.751110
21705.468750	-54.776062
21748.535156	-53.780231
21791.601562	-54.126919
21834.667969	-50.536655
21877.734375	-45.415291
21920.800781	-43.235943
21963.867188	-42.224312
22006.933594	-42.721149
