周波数 (Hz)	レベル (dB)
43.066406	-29.006313
86.132812	-25.042080
129.199219	-26.583872
172.265625	-32.672516
215.332031	-37.618172
258.398438	-44.644554
301.464844	-44.495564
344.531250	-41.502445
387.597656	-39.762417
430.664062	-39.200016
473.730469	-41.032761
516.796875	-43.108418
559.863281	-44.374329
602.929688	-47.400551
645.996094	-48.839344
689.062500	-48.850525
732.128906	-51.518211
775.195312	-45.876270
818.261719	-41.698730
861.328125	-42.033745
904.394531	-43.287045
947.460938	-44.439228
990.527344	-45.921608
1033.593750	-46.032295
1076.660156	-45.961056
1119.726562	-46.677296
1162.792969	-50.034618
1205.859375	-51.001759
1248.925781	-52.421349
1291.992188	-52.161945
1335.058594	-49.962040
1378.125000	-49.953251
1421.191406	-53.015648
1464.257812	-51.984879
1507.324219	-47.813259
1550.390625	-45.027443
1593.457031	-45.806648
1636.523438	-44.815430
1679.589844	-43.290531
1722.656250	-43.893936
1765.722656	-45.851776
1808.789062	-47.815601
1851.855469	-48.567753
1894.921875	-49.046070
1937.988281	-48.185711
1981.054688	-47.413979
2024.121094	-47.598663
2067.187500	-47.625713
2110.253906	-45.716106
2153.320312	-45.533760
2196.386719	-47.059929
2239.453125	-48.031609
2282.519531	-48.317238
2325.585938	-48.020138
2368.652344	-46.939121
2411.718750	-47.061913
2454.785156	-50.474716
2497.851562	-52.027313
2540.917969	-51.127964
2583.984375	-49.908421
2627.050781	-51.002026
2670.117188	-51.029125
2713.183594	-46.605072
2756.250000	-43.560226
2799.316406	-43.266319
2842.382812	-43.308144
2885.449219	-44.101658
2928.515625	-43.368626
2971.582031	-42.990879
3014.648438	-43.280506
3057.714844	-42.302399
3100.781250	-40.959549
3143.847656	-40.232220
3186.914062	-39.620876
3229.980469	-40.217857
3273.046875	-42.216763
3316.113281	-44.868065
3359.179688	-47.840149
3402.246094	-47.887581
3445.312500	-45.888771
3488.378906	-46.642803
3531.445312	-47.140347
3574.511719	-47.437691
3617.578125	-47.841942
3660.644531	-48.247425
3703.710938	-48.565495
3746.777344	-48.152683
3789.843750	-48.680431
3832.910156	-49.849739
3875.976562	-50.926971
3919.042969	-51.025703
3962.109375	-50.517845
4005.175781	-48.936203
4048.242188	-47.469822
4091.308594	-47.165504
4134.375000	-47.501038
4177.441406	-48.886166
4220.507812	-47.855125
4263.574219	-47.456059
4306.640625	-46.288319
4349.707031	-44.862900
4392.773438	-45.618336
4435.839844	-45.781853
4478.906250	-46.569016
4521.972656	-48.530479
4565.039062	-49.878426
4608.105469	-50.429955
4651.171875	-48.535275
4694.238281	-45.000977
4737.304688	-42.294548
4780.371094	-41.853561
4823.437500	-42.793217
4866.503906	-45.479954
4909.570312	-46.920868
4952.636719	-48.340691
4995.703125	-51.390789
5038.769531	-51.558079
5081.835938	-52.592880
5124.902344	-50.710320
5167.968750	-51.034969
5211.035156	-52.360367
5254.101562	-52.288181
5297.167969	-51.674770
5340.234375	-49.056770
5383.300781	-47.106388
5426.367188	-47.507843
5469.433594	-48.850925
5512.500000	-49.491146
5555.566406	-52.611820
5598.632812	-55.308304
5641.699219	-55.494701
5684.765625	-55.425396
5727.832031	-53.657646
5770.898438	-52.635460
5813.964844	-51.860779
5857.031250	-52.231781
5900.097656	-52.740894
5943.164062	-52.845413
5986.230469	-53.191063
6029.296875	-52.586960
6072.363281	-54.173615
6115.429688	-55.402851
6158.496094	-53.930614
6201.562500	-55.983284
6244.628906	-57.410816
6287.695312	-56.261948
6330.761719	-56.114052
6373.828125	-54.195339
6416.894531	-53.873783
6459.960938	-52.547516
6503.027344	-51.415466
6546.093750	-51.260925
6589.160156	-50.996044
6632.226562	-52.402828
6675.292969	-53.602139
6718.359375	-54.213409
6761.425781	-53.744312
6804.492188	-51.901463
6847.558594	-50.114807
6890.625000	-49.903736
6933.691406	-50.134670
6976.757812	-50.942348
7019.824219	-50.632488
7062.890625	-49.725533
7105.957031	-50.158398
7149.023438	-50.600483
7192.089844	-51.049080
7235.156250	-49.420879
7278.222656	-47.372688
7321.289062	-47.745815
7364.355469	-49.819099
7407.421875	-52.228516
7450.488281	-51.053036
7493.554688	-50.234459
7536.621094	-50.150211
7579.687500	-50.330975
7622.753906	-50.165318
7665.820312	-52.421932
7708.886719	-53.177063
7751.953125	-51.288898
7795.019531	-50.526642
7838.085938	-49.847675
7881.152344	-52.779018
7924.218750	-55.767139
7967.285156	-53.590931
8010.351562	-52.568272
8053.417969	-53.720684
8096.484375	-54.718777
8139.550781	-53.948685
8182.617188	-54.054531
8225.683594	-52.469894
8268.750000	-53.351830
8311.816406	-53.456066
8354.882812	-49.377731
8397.949219	-48.840740
8441.015625	-48.839218
8484.082031	-49.580986
8527.148438	-49.363487
8570.214844	-50.068943
8613.281250	-48.502190
8656.347656	-46.857861
8699.414062	-47.409286
8742.480469	-47.807201
8785.546875	-47.972309
8828.613281	-48.964874
8871.679688	-49.308846
8914.746094	-48.067692
8957.812500	-46.815365
9000.878906	-46.753696
9043.945312	-47.852623
9087.011719	-47.653114
9130.078125	-48.686295
9173.144531	-48.044399
9216.210938	-48.508553
9259.277344	-48.662003
9302.343750	-47.505814
9345.410156	-48.631393
9388.476562	-51.479721
9431.542969	-54.164936
9474.609375	-51.033661
9517.675781	-49.747143
9560.742188	-49.966206
9603.808594	-49.363796
9646.875000	-46.827370
9689.941406	-44.904312
9733.007812	-43.221355
9776.074219	-43.138943
9819.140625	-45.739162
9862.207031	-49.747692
9905.273438	-50.941525
9948.339844	-49.091301
9991.406250	-50.018478
10034.472656	-51.756126
10077.539062	-49.086998
10120.605469	-47.830383
10163.671875	-48.486099
10206.738281	-49.274864
10249.804688	-47.343113
10292.871094	-46.175564
10335.937500	-45.459492
10379.003906	-46.850060
10422.070312	-48.623936
10465.136719	-49.478283
10508.203125	-48.802113
10551.269531	-49.525681
10594.335938	-50.009731
10637.402344	-50.239567
10680.468750	-51.189945
10723.535156	-50.316738
10766.601562	-50.479816
10809.667969	-50.923744
10852.734375	-52.014244
10895.800781	-52.684731
10938.867188	-50.077030
10981.933594	-47.874771
11025.000000	-47.377228
11068.066406	-47.538174
11111.132812	-48.065701
11154.199219	-48.525558
11197.265625	-47.545231
11240.332031	-46.221455
11283.398438	-45.962811
11326.464844	-46.098888
11369.531250	-47.234821
11412.597656	-48.391132
11455.664062	-47.689812
11498.730469	-47.879406
11541.796875	-50.034687
11584.863281	-50.886600
11627.929688	-49.265228
11670.996094	-47.769138
11714.062500	-47.983303
11757.128906	-48.719196
11800.195312	-49.130928
11843.261719	-49.733047
11886.328125	-48.552143
11929.394531	-46.314697
11972.460938	-44.852001
12015.527344	-44.938293
12058.593750	-45.148083
12101.660156	-42.578655
12144.726562	-40.585407
12187.792969	-40.156155
12230.859375	-41.944931
12273.925781	-44.867195
12316.992188	-45.012356
12360.058594	-44.206490
12403.125000	-44.024109
12446.191406	-42.812752
12489.257812	-42.251564
12532.324219	-43.457016
12575.390625	-44.345520
12618.457031	-42.595951
12661.523438	-41.817184
12704.589844	-43.418728
12747.656250	-44.271313
12790.722656	-42.475410
12833.789062	-40.778385
12876.855469	-41.665615
12919.921875	-43.547688
12962.988281	-44.072880
13006.054688	-45.399822
13049.121094	-44.088856
13092.187500	-41.537086
13135.253906	-41.712868
13178.320312	-43.148457
13221.386719	-43.342564
13264.453125	-42.701862
13307.519531	-42.727146
13350.585938	-44.499641
13393.652344	-45.272495
13436.718750	-44.392330
13479.785156	-45.006248
13522.851562	-45.057980
13565.917969	-42.367046
13608.984375	-40.462914
13652.050781	-40.131527
13695.117188	-40.791126
13738.183594	-40.913445
13781.250000	-41.671425
13824.316406	-44.030556
13867.382812	-45.068035
13910.449219	-42.171501
13953.515625	-41.637806
13996.582031	-44.265697
14039.648438	-49.336685
14082.714844	-49.821178
14125.781250	-45.659309
14168.847656	-45.113316
14211.914062	-44.302132
14254.980469	-42.358173
14298.046875	-40.711590
14341.113281	-40.195194
14384.179688	-40.020569
14427.246094	-38.873608
14470.312500	-39.912392
14513.378906	-40.250374
14556.445312	-38.737972
14599.511719	-38.374649
14642.578125	-39.347565
14685.644531	-40.594608
14728.710938	-41.821766
14771.777344	-38.437626
14814.843750	-35.638916
14857.910156	-35.064484
14900.976562	-36.722031
14944.042969	-40.143478
14987.109375	-43.274036
15030.175781	-41.140766
15073.242188	-39.587528
15116.308594	-40.107147
15159.375000	-41.386475
15202.441406	-42.979668
15245.507812	-41.274769
15288.574219	-41.512543
15331.640625	-42.916935
15374.707031	-41.587368
15417.773438	-40.338642
15460.839844	-39.647343
15503.906250	-39.804909
15546.972656	-39.052895
15590.039062	-38.385117
15633.105469	-38.232136
15676.171875	-38.576660
15719.238281	-38.810120
15762.304688	-38.558033
15805.371094	-38.727482
15848.437500	-40.170483
15891.503906	-41.016331
15934.570312	-41.096130
15977.636719	-42.510052
16020.703125	-42.233303
16063.769531	-40.853912
16106.835938	-39.868637
16149.902344	-39.633549
16192.968750	-38.850201
16236.035156	-37.715878
16279.101562	-37.198719
16322.167969	-38.485130
16365.234375	-40.303825
16408.300781	-38.005276
16451.367188	-37.591705
16494.433594	-39.672749
16537.500000	-41.933830
16580.566406	-42.050510
16623.632812	-40.541149
16666.699219	-39.670757
16709.765625	-38.814075
16752.832031	-40.272446
16795.898438	-43.221680
16838.964844	-43.606892
16882.031250	-41.733467
16925.097656	-40.482224
16968.164062	-39.523338
17011.230469	-39.529976
17054.296875	-39.876534
17097.363281	-40.720104
17140.429688	-41.881119
17183.496094	-40.944859
17226.562500	-37.222160
17269.628906	-36.799004
17312.695312	-38.447861
17355.761719	-37.807777
17398.828125	-36.876656
17441.894531	-37.163403
17484.960938	-38.325054
17528.027344	-38.869820
17571.093750	-38.420670
17614.160156	-39.420692
17657.226562	-41.607594
17700.292969	-38.888397
17743.359375	-36.630802
17786.425781	-35.894436
17829.492188	-36.556129
17872.558594	-36.642128
17915.625000	-36.157452
17958.691406	-36.655159
18001.757812	-37.246258
18044.824219	-38.004082
18087.890625	-39.269634
18130.957031	-39.860947
18174.023438	-40.110657
18217.089844	-39.703465
18260.156250	-40.023247
18303.222656	-42.012085
18346.289062	-41.525913
18389.355469	-40.500160
18432.421875	-40.722843
18475.488281	-39.857445
18518.554688	-38.416405
18561.621094	-38.978447
18604.687500	-41.820152
18647.753906	-41.975418
18690.820312	-38.448326
18733.886719	-36.465977
18776.953125	-36.262897
18820.019531	-36.689240
18863.085938	-37.169193
18906.152344	-37.986496
18949.218750	-39.360714
18992.285156	-38.721275
19035.351562	-37.671722
19078.417969	-38.809853
19121.484375	-40.305042
19164.550781	-41.924736
19207.617188	-44.860573
19250.683594	-44.762978
19293.750000	-45.662815
19336.816406	-46.265816
19379.882812	-48.212463
19422.949219	-48.334148
19466.015625	-45.092869
19509.082031	-42.188828
19552.148438	-41.271637
19595.214844	-42.811260
19638.281250	-46.025669
19681.347656	-43.479267
19724.414062	-41.487358
19767.480469	-41.636559
19810.546875	-43.082424
19853.613281	-45.583118
19896.679688	-47.918011
19939.746094	-47.025871
19982.812500	-44.367905
20025.878906	-40.840233
20068.945312	-39.722591
20112.011719	-39.715256
20155.078125	-39.319839
20198.144531	-38.465271
20241.210938	-37.963696
20284.277344	-39.402843
20327.343750	-42.432228
20370.410156	-44.225605
20413.476562	-43.700199
20456.542969	-41.696289
20499.609375	-41.861042
20542.675781	-45.679100
20585.742188	-43.708641
20628.808594	-40.697948
20671.875000	-41.801105
20714.941406	-46.476410
20758.007812	-45.504379
20801.074219	-45.162643
20844.140625	-47.991497
20887.207031	-49.711273
20930.273438	-46.772938
20973.339844	-46.341373
21016.406250	-47.311947
21059.472656	-48.544178
21102.539062	-47.818943
21145.605469	-46.224411
21188.671875	-44.647057
21231.738281	-43.633656
21274.804688	-44.270050
21317.871094	-46.851532
21360.937500	-44.859051
21404.003906	-43.343842
21447.070312	-44.577187
21490.136719	-47.824501
21533.203125	-49.229275
21576.269531	-48.612076
21619.335938	-49.284153
21662.402344	-52.421101
21705.468750	-51.469643
21748.535156	-50.241535
21791.601562	-52.393864
21834.667969	-49.971817
21877.734375	-46.719799
21920.800781	-45.673416
21963.867188	-46.403015
22006.933594	-46.007793
