周波数 (Hz)	レベル (dB)
43.066406	-28.706348
86.132812	-25.098961
129.199219	-28.359972
172.265625	-36.028534
215.332031	-40.826511
258.398438	-41.489407
301.464844	-39.705334
344.531250	-39.696484
387.597656	-40.550529
430.664062	-41.383835
473.730469	-43.056118
516.796875	-45.060707
559.863281	-48.494720
602.929688	-50.739796
645.996094	-52.664448
689.062500	-55.239998
732.128906	-51.677021
775.195312	-52.677109
818.261719	-55.153923
861.328125	-51.977249
904.394531	-52.724770
947.460938	-49.768345
990.527344	-49.038910
1033.593750	-50.416573
1076.660156	-51.056057
1119.726562	-52.452206
1162.792969	-51.414761
1205.859375	-50.065472
1248.925781	-45.080799
1291.992188	-40.656479
1335.058594	-40.479431
1378.125000	-44.062454
1421.191406	-49.546295
1464.257812	-50.222702
1507.324219	-49.679363
1550.390625	-47.217869
1593.457031	-44.737526
1636.523438	-45.191021
1679.589844	-45.562347
1722.656250	-47.178696
1765.722656	-50.242893
1808.789062	-50.966019
1851.855469	-50.584446
1894.921875	-48.963238
1937.988281	-51.725204
1981.054688	-49.791645
2024.121094	-47.596760
2067.187500	-47.917637
2110.253906	-48.246681
2153.320312	-49.002075
2196.386719	-51.149452
2239.453125	-50.856312
2282.519531	-47.000114
2325.585938	-45.670013
2368.652344	-47.038723
2411.718750	-49.578968
2454.785156	-52.628345
2497.851562	-53.834045
2540.917969	-54.801823
2583.984375	-56.084072
2627.050781	-55.305210
2670.117188	-55.842312
2713.183594	-55.230473
2756.250000	-54.611725
2799.316406	-51.686451
2842.382812	-49.633530
2885.449219	-52.170189
2928.515625	-55.032944
2971.582031	-53.460850
3014.648438	-48.825569
3057.714844	-45.462364
3100.781250	-44.414215
3143.847656	-45.277287
3186.914062	-47.373299
3229.980469	-49.523289
3273.046875	-50.991325
3316.113281	-51.513451
3359.179688	-49.920090
3402.246094	-49.450951
3445.312500	-48.912357
3488.378906	-51.252548
3531.445312	-53.899929
3574.511719	-48.518921
3617.578125	-46.590820
3660.644531	-47.891735
3703.710938	-51.181175
3746.777344	-50.320511
3789.843750	-49.383301
3832.910156	-47.565380
3875.976562	-48.032433
3919.042969	-49.544197
3962.109375	-51.947598
4005.175781	-55.946129
4048.242188	-58.319019
4091.308594	-53.061443
4134.375000	-51.073509
4177.441406	-50.677387
4220.507812	-50.444923
4263.574219	-51.563614
4306.640625	-51.551273
4349.707031	-46.706467
4392.773438	-44.537216
4435.839844	-43.711987
4478.906250	-45.513031
4521.972656	-49.472904
4565.039062	-52.175396
4608.105469	-49.185841
4651.171875	-47.105186
4694.238281	-47.506374
4737.304688	-49.474030
4780.371094	-51.981400
4823.437500	-53.612228
4866.503906	-50.670227
4909.570312	-47.864014
4952.636719	-48.593708
4995.703125	-49.741772
5038.769531	-47.658455
5081.835938	-47.379223
5124.902344	-49.092636
5167.968750	-46.876999
5211.035156	-44.547318
5254.101562	-45.517784
5297.167969	-49.271465
5340.234375	-53.860912
5383.300781	-50.427845
5426.367188	-47.747787
5469.433594	-46.785393
5512.500000	-48.622032
5555.566406	-51.253956
5598.632812	-51.344540
5641.699219	-50.946133
5684.765625	-52.546989
5727.832031	-52.703438
5770.898438	-53.433392
5813.964844	-56.342903
5857.031250	-54.712540
5900.097656	-51.017380
5943.164062	-50.323673
5986.230469	-50.649643
6029.296875	-49.378513
6072.363281	-49.406712
6115.429688	-51.632820
6158.496094	-51.478168
6201.562500	-50.699226
6244.628906	-52.585743
6287.695312	-52.520294
6330.761719	-51.553867
6373.828125	-52.444649
6416.894531	-55.758797
6459.960938	-54.159328
6503.027344	-51.253731
6546.093750	-51.666004
6589.160156	-53.415462
6632.226562	-54.341042
6675.292969	-54.564308
6718.359375	-50.635597
6761.425781	-46.794918
6804.492188	-45.502655
6847.558594	-46.012707
6890.625000	-49.304874
6933.691406	-53.038387
6976.757812	-50.592808
7019.824219	-50.749203
7062.890625	-50.616142
7105.957031	-49.433956
7149.023438	-48.313850
7192.089844	-49.511806
7235.156250	-47.511250
7278.222656	-44.201523
7321.289062	-43.138317
7364.355469	-43.998638
7407.421875	-46.924294
7450.488281	-50.270779
7493.554688	-51.196186
7536.621094	-51.075680
7579.687500	-50.799335
7622.753906	-52.512146
7665.820312	-55.990845
7708.886719	-56.877533
7751.953125	-51.857903
7795.019531	-50.651398
7838.085938	-52.303288
7881.152344	-56.169193
7924.218750	-55.349209
7967.285156	-49.432644
8010.351562	-47.093143
8053.417969	-47.911240
8096.484375	-51.397102
8139.550781	-53.931396
8182.617188	-51.960423
8225.683594	-51.917648
8268.750000	-51.828957
8311.816406	-53.053864
8354.882812	-56.144051
8397.949219	-55.276890
8441.015625	-51.729748
8484.082031	-51.537964
8527.148438	-54.288136
8570.214844	-57.625214
8613.281250	-55.675827
8656.347656	-54.638206
8699.414062	-55.473461
8742.480469	-55.291527
8785.546875	-53.958786
8828.613281	-54.148972
8871.679688	-52.380688
8914.746094	-50.248978
8957.812500	-49.450348
9000.878906	-49.181816
9043.945312	-49.160725
9087.011719	-51.185570
9130.078125	-53.581417
9173.144531	-53.209187
9216.210938	-52.577576
9259.277344	-52.161415
9302.343750	-52.787148
9345.410156	-54.519051
9388.476562	-51.058434
9431.542969	-47.229622
9474.609375	-46.845051
9517.675781	-48.424797
9560.742188	-48.990128
9603.808594	-49.071102
9646.875000	-51.152588
9689.941406	-51.352341
9733.007812	-47.423622
9776.074219	-43.923283
9819.140625	-43.438263
9862.207031	-45.415401
9905.273438	-50.580009
9948.339844	-50.879780
9991.406250	-47.504589
10034.472656	-48.533073
10077.539062	-50.111279
10120.605469	-47.703465
10163.671875	-47.204594
10206.738281	-49.801613
10249.804688	-50.575245
10292.871094	-50.048351
10335.937500	-51.233875
10379.003906	-51.827065
10422.070312	-52.513786
10465.136719	-54.300781
10508.203125	-52.408813
10551.269531	-48.681290
10594.335938	-46.600586
10637.402344	-46.770760
10680.468750	-49.249889
10723.535156	-49.934807
10766.601562	-48.112823
10809.667969	-48.638409
10852.734375	-50.574657
10895.800781	-50.067810
10938.867188	-48.669281
10981.933594	-49.110828
11025.000000	-49.849369
11068.066406	-48.929821
11111.132812	-49.000778
11154.199219	-49.131149
11197.265625	-49.151924
11240.332031	-49.121502
11283.398438	-49.896519
11326.464844	-53.342979
11369.531250	-54.572571
11412.597656	-50.321075
11455.664062	-45.909374
11498.730469	-43.432262
11541.796875	-43.164722
11584.863281	-43.735554
11627.929688	-45.800262
11670.996094	-49.726170
11714.062500	-48.635399
11757.128906	-45.586746
11800.195312	-44.306313
11843.261719	-45.757488
11886.328125	-47.910801
11929.394531	-47.735229
11972.460938	-47.877281
12015.527344	-49.716103
12058.593750	-51.283924
12101.660156	-51.387352
12144.726562	-51.447632
12187.792969	-52.937626
12230.859375	-51.242676
12273.925781	-48.990372
12316.992188	-49.217300
12360.058594	-47.568596
12403.125000	-44.617008
12446.191406	-44.571354
12489.257812	-45.142735
12532.324219	-44.903938
12575.390625	-45.527420
12618.457031	-47.189861
12661.523438	-46.192829
12704.589844	-44.232044
12747.656250	-44.709881
12790.722656	-48.303307
12833.789062	-54.570789
12876.855469	-52.546143
12919.921875	-52.365444
12962.988281	-51.167053
13006.054688	-50.027622
13049.121094	-46.122734
13092.187500	-42.891140
13135.253906	-42.218685
13178.320312	-44.198875
13221.386719	-45.774925
13264.453125	-44.160610
13307.519531	-44.445385
13350.585938	-47.639172
13393.652344	-49.952656
13436.718750	-49.980011
13479.785156	-51.451473
13522.851562	-49.598724
13565.917969	-46.458447
13608.984375	-45.081921
13652.050781	-45.510201
13695.117188	-43.972145
13738.183594	-42.715515
13781.250000	-43.390816
13824.316406	-45.807365
13867.382812	-46.517136
13910.449219	-44.236122
13953.515625	-45.967140
13996.582031	-48.418095
14039.648438	-49.155872
14082.714844	-49.769257
14125.781250	-47.280670
14168.847656	-45.669388
14211.914062	-47.055481
14254.980469	-50.683140
14298.046875	-46.199966
14341.113281	-42.406105
14384.179688	-41.891365
14427.246094	-44.544308
14470.312500	-46.911163
14513.378906	-46.008007
14556.445312	-44.047672
14599.511719	-42.648224
14642.578125	-41.750996
14685.644531	-41.696499
14728.710938	-42.769428
14771.777344	-45.687168
14814.843750	-46.218552
14857.910156	-43.209820
14900.976562	-44.013790
14944.042969	-44.938847
14987.109375	-40.751270
15030.175781	-38.455406
15073.242188	-39.678108
15116.308594	-44.423820
15159.375000	-38.918011
15202.441406	-34.917126
15245.507812	-34.903542
15288.574219	-37.964825
15331.640625	-40.112129
15374.707031	-36.739655
15417.773438	-37.001549
15460.839844	-39.520111
15503.906250	-47.112320
15546.972656	-42.358555
15590.039062	-39.547039
15633.105469	-39.616043
15676.171875	-41.929043
15719.238281	-42.234138
15762.304688	-39.660561
15805.371094	-39.650097
15848.437500	-41.615444
15891.503906	-44.799263
15934.570312	-39.361786
15977.636719	-35.390152
16020.703125	-34.455868
16063.769531	-36.542828
16106.835938	-42.645374
16149.902344	-44.165684
16192.968750	-39.692913
16236.035156	-37.035530
16279.101562	-36.025143
16322.167969	-36.532803
16365.234375	-39.310452
16408.300781	-45.879715
16451.367188	-48.937851
16494.433594	-45.236748
16537.500000	-44.646614
16580.566406	-45.954693
16623.632812	-46.988834
16666.699219	-47.625286
16709.765625	-47.932285
16752.832031	-45.735935
16795.898438	-43.391945
16838.964844	-40.628342
16882.031250	-39.581367
16925.097656	-41.089622
16968.164062	-44.646454
17011.230469	-46.794285
17054.296875	-45.145409
17097.363281	-45.169712
17140.429688	-44.162666
17183.496094	-44.825588
17226.562500	-46.228951
17269.628906	-48.625431
17312.695312	-46.867577
17355.761719	-43.708981
17398.828125	-41.798386
17441.894531	-41.454998
17484.960938	-42.631016
17528.027344	-44.789841
17571.093750	-45.978619
17614.160156	-46.822601
17657.226562	-48.498554
17700.292969	-47.219551
17743.359375	-46.583614
17786.425781	-46.275654
17829.492188	-46.323627
17872.558594	-46.473324
17915.625000	-46.349094
17958.691406	-43.729324
18001.757812	-42.523746
18044.824219	-42.186516
18087.890625	-42.792347
18130.957031	-44.282658
18174.023438	-46.605213
18217.089844	-48.823109
18260.156250	-48.113884
18303.222656	-46.779339
18346.289062	-47.423584
18389.355469	-47.646439
18432.421875	-47.395706
18475.488281	-46.065529
18518.554688	-44.797161
18561.621094	-45.506058
18604.687500	-47.297661
18647.753906	-47.974724
18690.820312	-46.754707
18733.886719	-44.549046
18776.953125	-44.867218
18820.019531	-46.439537
18863.085938	-48.329193
18906.152344	-47.978546
18949.218750	-47.680035
18992.285156	-47.425800
19035.351562	-47.785763
19078.417969	-48.300037
19121.484375	-46.135159
19164.550781	-43.700363
19207.617188	-42.555824
19250.683594	-43.056484
19293.750000	-45.430630
19336.816406	-47.948029
19379.882812	-47.351772
19422.949219	-46.706367
19466.015625	-47.204197
19509.082031	-47.336536
19552.148438	-46.455513
19595.214844	-45.021511
19638.281250	-44.155518
19681.347656	-45.194386
19724.414062	-48.050957
19767.480469	-48.493851
19810.546875	-46.142376
19853.613281	-43.145359
19896.679688	-41.057652
19939.746094	-41.417141
19982.812500	-44.746910
20025.878906	-49.899769
20068.945312	-48.850121
20112.011719	-45.917690
20155.078125	-45.367710
20198.144531	-47.182262
20241.210938	-50.132599
20284.277344	-53.448853
20327.343750	-52.249363
20370.410156	-50.049511
20413.476562	-48.338425
20456.542969	-47.976238
20499.609375	-49.480267
20542.675781	-52.352333
20585.742188	-51.014107
20628.808594	-50.614754
20671.875000	-50.623260
20714.941406	-50.255856
20758.007812	-49.352989
20801.074219	-49.354496
20844.140625	-49.799389
20887.207031	-51.991432
20930.273438	-53.456360
20973.339844	-51.560654
21016.406250	-50.100353
21059.472656	-49.770103
21102.539062	-50.028309
21145.605469	-51.985241
21188.671875	-53.353588
21231.738281	-52.381729
21274.804688	-49.813931
21317.871094	-48.621868
21360.937500	-48.777447
21404.003906	-49.726162
21447.070312	-52.972034
21490.136719	-54.105537
21533.203125	-50.407860
21576.269531	-47.794727
21619.335938	-47.871231
21662.402344	-49.791164
21705.468750	-52.008743
21748.535156	-52.183670
21791.601562	-51.545567
21834.667969	-52.744057
21877.734375	-54.581734
21920.800781	-54.601494
21963.867188	-53.994949
22006.933594	-55.931446
