周波数 (Hz)	レベル (dB)
43.066406	-33.234383
86.132812	-30.879362
129.199219	-34.028149
172.265625	-43.443897
215.332031	-46.767418
258.398438	-52.366615
301.464844	-50.044888
344.531250	-52.532249
387.597656	-51.606907
430.664062	-50.910812
473.730469	-53.602821
516.796875	-56.877674
559.863281	-60.012943
602.929688	-63.646648
645.996094	-63.350395
689.062500	-64.462242
732.128906	-63.821884
775.195312	-65.017662
818.261719	-63.875198
861.328125	-62.765564
904.394531	-62.369373
947.460938	-63.223106
990.527344	-60.847767
1033.593750	-60.656471
1076.660156	-64.338791
1119.726562	-65.232552
1162.792969	-66.299774
1205.859375	-64.614616
1248.925781	-64.366592
1291.992188	-62.064037
1335.058594	-59.223801
1378.125000	-60.535553
1421.191406	-64.146950
1464.257812	-67.173187
1507.324219	-68.631889
1550.390625	-63.972515
1593.457031	-60.136868
1636.523438	-59.673874
1679.589844	-59.172977
1722.656250	-59.754013
1765.722656	-60.720707
1808.789062	-62.152592
1851.855469	-60.104630
1894.921875	-58.118343
1937.988281	-57.733994
1981.054688	-58.489056
2024.121094	-60.046223
2067.187500	-62.400028
2110.253906	-63.118462
2153.320312	-62.530659
2196.386719	-62.500652
2239.453125	-61.256874
2282.519531	-59.043678
2325.585938	-56.560608
2368.652344	-55.570766
2411.718750	-54.899075
2454.785156	-54.692970
2497.851562	-54.579948
2540.917969	-55.371891
2583.984375	-58.018429
2627.050781	-59.445786
2670.117188	-60.416283
2713.183594	-61.069527
2756.250000	-61.350380
2799.316406	-63.447655
2842.382812	-67.713043
2885.449219	-67.110985
2928.515625	-65.692688
2971.582031	-63.814888
3014.648438	-62.114555
3057.714844	-61.646347
3100.781250	-61.433483
3143.847656	-60.294262
3186.914062	-60.540913
3229.980469	-61.701962
3273.046875	-62.248653
3316.113281	-62.230747
3359.179688	-62.037697
3402.246094	-60.699005
3445.312500	-60.493073
3488.378906	-61.592834
3531.445312	-60.657120
3574.511719	-58.145638
3617.578125	-57.549812
3660.644531	-59.541817
3703.710938	-62.574909
3746.777344	-61.323734
3789.843750	-62.049210
3832.910156	-63.251293
3875.976562	-62.070202
3919.042969	-63.186684
3962.109375	-64.706467
4005.175781	-64.974998
4048.242188	-64.322601
4091.308594	-64.211609
4134.375000	-63.086231
4177.441406	-62.702053
4220.507812	-63.948524
4263.574219	-64.755638
4306.640625	-61.745346
4349.707031	-59.424156
4392.773438	-59.075623
4435.839844	-58.142242
4478.906250	-58.147209
4521.972656	-58.511612
4565.039062	-60.330044
4608.105469	-62.727795
4651.171875	-62.829159
4694.238281	-62.245113
4737.304688	-61.844078
4780.371094	-61.129768
4823.437500	-59.186836
4866.503906	-58.074135
4909.570312	-58.428513
4952.636719	-59.546776
4995.703125	-60.113461
5038.769531	-60.427166
5081.835938	-61.477928
5124.902344	-63.113144
5167.968750	-63.807537
5211.035156	-64.686470
5254.101562	-67.520004
5297.167969	-67.642059
5340.234375	-65.618217
5383.300781	-64.900452
5426.367188	-64.768021
5469.433594	-63.898834
5512.500000	-64.038864
5555.566406	-64.336281
5598.632812	-65.568085
5641.699219	-66.112694
5684.765625	-63.826664
5727.832031	-64.153511
5770.898438	-66.950821
5813.964844	-67.316368
5857.031250	-67.785652
5900.097656	-66.495598
5943.164062	-65.059158
5986.230469	-63.648968
6029.296875	-63.252861
6072.363281	-65.495537
6115.429688	-66.301666
6158.496094	-65.112808
6201.562500	-64.438560
6244.628906	-65.109924
6287.695312	-65.759941
6330.761719	-67.324402
6373.828125	-68.370026
6416.894531	-67.909828
6459.960938	-66.703796
6503.027344	-66.505211
6546.093750	-67.757553
6589.160156	-68.242607
6632.226562	-67.062508
6675.292969	-66.193161
6718.359375	-67.112381
6761.425781	-67.953476
6804.492188	-67.433517
6847.558594	-67.301918
6890.625000	-67.668381
6933.691406	-66.200653
6976.757812	-64.877129
7019.824219	-64.317368
7062.890625	-63.392410
7105.957031	-61.984627
7149.023438	-60.394836
7192.089844	-60.236565
7235.156250	-60.243477
7278.222656	-61.095242
7321.289062	-64.620255
7364.355469	-65.945404
7407.421875	-66.259720
7450.488281	-65.883461
7493.554688	-65.519630
7536.621094	-65.603203
7579.687500	-66.957169
7622.753906	-66.526260
7665.820312	-66.248787
7708.886719	-66.485321
7751.953125	-65.338898
7795.019531	-64.470070
7838.085938	-62.474281
7881.152344	-60.828854
7924.218750	-60.640556
7967.285156	-61.217995
8010.351562	-62.902355
8053.417969	-63.029755
8096.484375	-62.444809
8139.550781	-63.060463
8182.617188	-63.994499
8225.683594	-67.157822
8268.750000	-71.048973
8311.816406	-69.289993
8354.882812	-69.205383
8397.949219	-70.112625
8441.015625	-68.304230
8484.082031	-66.110870
8527.148438	-65.101891
8570.214844	-64.140778
8613.281250	-62.244987
8656.347656	-61.965797
8699.414062	-64.040009
8742.480469	-64.204781
8785.546875	-62.540146
8828.613281	-62.122890
8871.679688	-63.374569
8914.746094	-64.311417
8957.812500	-65.340256
9000.878906	-64.737419
9043.945312	-64.191772
9087.011719	-64.481918
9130.078125	-65.087631
9173.144531	-66.140663
9216.210938	-65.764336
9259.277344	-64.540604
9302.343750	-65.669403
9345.410156	-67.055038
9388.476562	-67.572861
9431.542969	-65.705490
9474.609375	-64.335129
9517.675781	-64.186478
9560.742188	-64.817337
9603.808594	-65.338387
9646.875000	-64.879013
9689.941406	-63.662201
9733.007812	-63.434105
9776.074219	-63.645847
9819.140625	-63.116550
9862.207031	-64.736801
9905.273438	-64.362152
9948.339844	-63.888351
9991.406250	-64.576492
10034.472656	-64.404190
10077.539062	-62.974548
10120.605469	-62.527672
10163.671875	-63.503967
10206.738281	-63.325909
10249.804688	-64.060097
10292.871094	-64.187363
10335.937500	-62.960011
10379.003906	-62.168533
10422.070312	-61.153767
10465.136719	-61.100876
10508.203125	-60.248356
10551.269531	-61.020206
10594.335938	-61.714455
10637.402344	-61.728088
10680.468750	-62.196827
10723.535156	-62.642227
10766.601562	-61.903366
10809.667969	-62.084080
10852.734375	-62.041534
10895.800781	-61.077763
10938.867188	-60.931187
10981.933594	-60.234859
11025.000000	-58.634293
11068.066406	-58.297821
11111.132812	-58.086227
11154.199219	-57.070194
11197.265625	-57.937836
11240.332031	-57.826221
11283.398438	-56.679607
11326.464844	-56.780792
11369.531250	-58.430893
11412.597656	-58.623035
11455.664062	-58.567165
11498.730469	-59.386803
11541.796875	-58.460415
11584.863281	-57.468815
11627.929688	-58.251972
11670.996094	-59.260239
11714.062500	-59.826012
11757.128906	-60.961937
11800.195312	-61.465588
11843.261719	-62.223869
11886.328125	-61.462391
11929.394531	-59.782867
11972.460938	-58.259205
12015.527344	-57.848656
12058.593750	-57.146481
12101.660156	-55.539257
12144.726562	-54.597115
12187.792969	-55.175114
12230.859375	-56.619205
12273.925781	-57.385708
12316.992188	-58.122757
12360.058594	-57.928764
12403.125000	-58.721176
12446.191406	-58.711060
12489.257812	-57.280720
12532.324219	-56.354912
12575.390625	-56.334667
12618.457031	-56.398041
12661.523438	-54.550869
12704.589844	-53.203854
12747.656250	-53.007217
12790.722656	-52.794270
12833.789062	-52.583942
12876.855469	-52.514839
12919.921875	-53.298313
12962.988281	-54.461021
13006.054688	-55.879429
13049.121094	-57.188324
13092.187500	-57.972179
13135.253906	-57.330849
13178.320312	-56.650230
13221.386719	-56.455639
13264.453125	-56.731815
13307.519531	-56.594112
13350.585938	-57.526619
13393.652344	-60.161137
13436.718750	-61.978374
13479.785156	-61.435978
13522.851562	-60.421883
13565.917969	-60.573181
13608.984375	-60.935822
13652.050781	-59.194153
13695.117188	-57.834400
13738.183594	-57.086624
13781.250000	-56.427052
13824.316406	-56.061886
13867.382812	-55.771626
13910.449219	-56.007782
13953.515625	-56.172993
13996.582031	-56.805008
14039.648438	-57.787891
14082.714844	-58.817471
14125.781250	-58.637577
14168.847656	-57.487617
14211.914062	-56.753700
14254.980469	-55.954235
14298.046875	-56.159969
14341.113281	-56.367203
14384.179688	-55.871372
14427.246094	-55.371090
14470.312500	-54.818836
14513.378906	-55.501904
14556.445312	-55.968822
14599.511719	-56.062340
14642.578125	-56.254417
14685.644531	-56.472340
14728.710938	-56.576431
14771.777344	-57.062836
14814.843750	-57.501629
14857.910156	-57.761284
14900.976562	-57.721825
14944.042969	-58.669632
14987.109375	-58.423412
15030.175781	-57.088890
15073.242188	-56.390324
15116.308594	-57.120102
15159.375000	-58.096863
15202.441406	-58.898796
15245.507812	-56.677105
15288.574219	-54.510960
15331.640625	-53.100658
15374.707031	-53.430481
15417.773438	-55.233624
15460.839844	-55.559906
15503.906250	-55.460773
15546.972656	-54.688644
15590.039062	-54.559029
15633.105469	-54.808865
15676.171875	-53.534176
15719.238281	-53.527782
15762.304688	-53.242264
15805.371094	-52.298145
15848.437500	-51.949287
15891.503906	-53.164066
15934.570312	-55.474243
15977.636719	-55.498032
16020.703125	-55.825714
16063.769531	-57.040337
16106.835938	-59.051685
16149.902344	-57.585827
16192.968750	-55.868931
16236.035156	-55.809052
16279.101562	-55.558609
16322.167969	-55.183140
16365.234375	-55.581413
16408.300781	-55.853008
16451.367188	-55.195038
16494.433594	-54.206696
16537.500000	-54.438473
16580.566406	-55.642097
16623.632812	-56.271908
16666.699219	-56.921547
16709.765625	-57.132847
16752.832031	-56.224106
16795.898438	-56.148228
16838.964844	-54.955338
16882.031250	-55.337292
16925.097656	-53.582802
16968.164062	-53.702507
17011.230469	-55.414021
17054.296875	-55.795483
17097.363281	-54.390278
17140.429688	-53.962555
17183.496094	-54.755650
17226.562500	-54.658657
17269.628906	-53.779858
17312.695312	-53.933922
17355.761719	-54.754177
17398.828125	-57.262318
17441.894531	-59.472198
17484.960938	-59.885429
17528.027344	-59.719788
17571.093750	-58.780815
17614.160156	-58.104813
17657.226562	-57.576157
17700.292969	-57.603184
17743.359375	-57.101376
17786.425781	-55.999660
17829.492188	-56.503822
17872.558594	-56.844730
17915.625000	-56.377781
17958.691406	-56.544350
18001.757812	-55.823402
18044.824219	-55.788017
18087.890625	-56.588020
18130.957031	-58.836922
18174.023438	-58.561146
18217.089844	-58.301949
18260.156250	-58.876072
18303.222656	-59.198933
18346.289062	-57.123489
18389.355469	-56.334587
18432.421875	-56.968929
18475.488281	-57.443386
18518.554688	-56.792095
18561.621094	-57.126049
18604.687500	-57.098209
18647.753906	-57.037514
18690.820312	-56.898365
18733.886719	-56.618130
18776.953125	-55.574089
18820.019531	-55.655052
18863.085938	-55.425449
18906.152344	-55.135925
18949.218750	-54.975269
18992.285156	-54.599064
19035.351562	-54.876698
19078.417969	-55.114162
19121.484375	-55.025753
19164.550781	-54.858551
19207.617188	-55.387836
19250.683594	-56.487980
19293.750000	-57.472980
19336.816406	-58.619354
19379.882812	-58.616638
19422.949219	-57.304928
19466.015625	-55.927860
19509.082031	-55.987617
19552.148438	-57.446747
19595.214844	-58.855988
19638.281250	-58.828869
19681.347656	-58.267811
19724.414062	-58.358978
19767.480469	-58.651859
19810.546875	-59.602791
19853.613281	-59.148148
19896.679688	-58.704285
19939.746094	-59.518383
19982.812500	-59.557400
20025.878906	-59.613220
20068.945312	-61.167057
20112.011719	-61.408401
20155.078125	-59.854622
20198.144531	-59.893429
20241.210938	-60.678120
20284.277344	-61.601604
20327.343750	-62.141609
20370.410156	-63.421371
20413.476562	-64.246124
20456.542969	-63.838150
20499.609375	-64.278885
20542.675781	-64.300980
20585.742188	-64.520599
20628.808594	-65.224861
20671.875000	-64.512924
20714.941406	-63.539089
20758.007812	-62.060585
20801.074219	-61.883812
20844.140625	-61.824474
20887.207031	-60.999710
20930.273438	-60.426712
20973.339844	-60.962189
21016.406250	-60.495380
21059.472656	-60.273560
21102.539062	-60.240788
21145.605469	-59.378365
21188.671875	-59.756268
21231.738281	-60.738361
21274.804688	-60.824551
21317.871094	-60.125809
21360.937500	-60.090836
21404.003906	-61.316669
21447.070312	-62.316345
21490.136719	-61.545845
21533.203125	-61.017666
21576.269531	-61.312408
21619.335938	-62.152447
21662.402344	-62.366261
21705.468750	-63.439892
21748.535156	-63.033081
21791.601562	-62.428627
21834.667969	-61.871391
21877.734375	-62.028450
21920.800781	-61.387257
21963.867188	-61.392242
22006.933594	-61.647141
