周波数 (Hz)	レベル (dB)
43.066406	-31.860504
86.132812	-27.250776
129.199219	-29.536465
172.265625	-38.065903
215.332031	-43.594532
258.398438	-48.653008
301.464844	-50.236229
344.531250	-46.501766
387.597656	-44.174553
430.664062	-44.288738
473.730469	-47.943802
516.796875	-51.324627
559.863281	-55.068619
602.929688	-59.175896
645.996094	-62.652466
689.062500	-64.038666
732.128906	-60.232880
775.195312	-58.746166
818.261719	-55.574593
861.328125	-54.584064
904.394531	-54.577263
947.460938	-54.960079
990.527344	-54.826084
1033.593750	-54.631458
1076.660156	-57.220333
1119.726562	-59.718876
1162.792969	-62.634628
1205.859375	-59.839981
1248.925781	-56.492630
1291.992188	-52.907608
1335.058594	-52.434235
1378.125000	-54.913303
1421.191406	-56.632030
1464.257812	-56.538250
1507.324219	-55.916721
1550.390625	-55.658386
1593.457031	-56.978043
1636.523438	-56.899689
1679.589844	-56.756878
1722.656250	-58.551064
1765.722656	-61.007275
1808.789062	-57.719601
1851.855469	-53.770576
1894.921875	-52.927448
1937.988281	-52.490429
1981.054688	-52.026951
2024.121094	-52.117638
2067.187500	-53.666718
2110.253906	-57.381962
2153.320312	-59.511902
2196.386719	-57.431194
2239.453125	-55.749786
2282.519531	-53.777100
2325.585938	-52.078541
2368.652344	-51.872158
2411.718750	-53.110996
2454.785156	-54.220398
2497.851562	-54.929756
2540.917969	-55.110069
2583.984375	-55.973595
2627.050781	-57.835052
2670.117188	-57.728813
2713.183594	-57.298668
2756.250000	-58.276691
2799.316406	-59.961098
2842.382812	-60.337315
2885.449219	-59.270023
2928.515625	-57.137184
2971.582031	-57.283119
3014.648438	-57.686504
3057.714844	-56.315292
3100.781250	-54.385414
3143.847656	-54.650185
3186.914062	-54.644989
3229.980469	-54.810062
3273.046875	-55.228836
3316.113281	-54.223549
3359.179688	-53.443195
3402.246094	-54.466747
3445.312500	-56.635044
3488.378906	-55.659035
3531.445312	-54.526859
3574.511719	-53.906658
3617.578125	-52.329342
3660.644531	-52.162148
3703.710938	-53.275734
3746.777344	-54.034187
3789.843750	-56.090931
3832.910156	-57.760986
3875.976562	-58.154957
3919.042969	-59.294399
3962.109375	-61.490993
4005.175781	-61.082657
4048.242188	-60.729534
4091.308594	-58.157429
4134.375000	-57.165012
4177.441406	-57.284870
4220.507812	-57.874378
4263.574219	-59.595322
4306.640625	-60.743023
4349.707031	-59.736881
4392.773438	-58.586575
4435.839844	-57.828785
4478.906250	-55.527328
4521.972656	-53.819210
4565.039062	-53.383499
4608.105469	-54.397530
4651.171875	-56.222950
4694.238281	-58.302090
4737.304688	-56.962833
4780.371094	-55.448097
4823.437500	-54.979080
4866.503906	-55.139503
4909.570312	-54.871647
4952.636719	-54.517830
4995.703125	-54.548878
5038.769531	-55.565449
5081.835938	-55.799671
5124.902344	-55.703285
5167.968750	-55.574608
5211.035156	-56.291759
5254.101562	-57.597874
5297.167969	-58.273388
5340.234375	-59.416252
5383.300781	-60.874405
5426.367188	-59.685543
5469.433594	-58.704075
5512.500000	-58.054390
5555.566406	-58.299511
5598.632812	-58.684784
5641.699219	-57.884590
5684.765625	-57.062992
5727.832031	-56.826298
5770.898438	-57.286366
5813.964844	-56.245426
5857.031250	-56.931206
5900.097656	-58.546654
5943.164062	-58.943317
5986.230469	-59.921623
6029.296875	-59.712086
6072.363281	-60.608883
6115.429688	-62.172161
6158.496094	-59.776329
6201.562500	-58.189911
6244.628906	-60.151604
6287.695312	-60.043194
6330.761719	-59.879120
6373.828125	-62.514774
6416.894531	-62.387238
6459.960938	-60.351479
6503.027344	-59.148464
6546.093750	-60.133366
6589.160156	-60.703526
6632.226562	-61.527020
6675.292969	-62.100842
6718.359375	-60.572468
6761.425781	-59.194012
6804.492188	-58.073940
6847.558594	-57.736076
6890.625000	-58.803730
6933.691406	-58.932217
6976.757812	-57.690060
7019.824219	-56.808823
7062.890625	-55.822861
7105.957031	-53.884865
7149.023438	-52.333515
7192.089844	-51.890575
7235.156250	-52.779663
7278.222656	-54.788208
7321.289062	-55.537193
7364.355469	-54.637798
7407.421875	-54.209122
7450.488281	-54.362232
7493.554688	-55.702164
7536.621094	-57.088970
7579.687500	-58.393398
7622.753906	-59.634953
7665.820312	-60.193260
7708.886719	-59.277729
7751.953125	-58.575130
7795.019531	-57.239239
7838.085938	-56.222664
7881.152344	-57.647049
7924.218750	-58.856197
7967.285156	-59.141403
8010.351562	-58.868847
8053.417969	-59.143509
8096.484375	-60.086960
8139.550781	-59.974548
8182.617188	-58.988018
8225.683594	-59.445091
8268.750000	-60.743935
8311.816406	-60.218216
8354.882812	-60.464188
8397.949219	-59.546120
8441.015625	-58.282154
8484.082031	-59.910854
8527.148438	-60.965908
8570.214844	-58.986565
8613.281250	-58.624813
8656.347656	-59.331776
8699.414062	-60.221413
8742.480469	-59.486641
8785.546875	-57.400936
8828.613281	-57.703094
8871.679688	-58.755173
8914.746094	-57.651524
8957.812500	-57.850082
9000.878906	-57.916714
9043.945312	-58.548389
9087.011719	-59.460270
9130.078125	-59.124016
9173.144531	-58.197479
9216.210938	-57.457352
9259.277344	-56.126789
9302.343750	-55.958061
9345.410156	-56.754639
9388.476562	-57.154007
9431.542969	-57.189747
9474.609375	-55.951103
9517.675781	-55.857201
9560.742188	-56.391792
9603.808594	-56.678497
9646.875000	-56.295128
9689.941406	-56.072933
9733.007812	-57.414948
9776.074219	-55.554691
9819.140625	-54.720310
9862.207031	-54.907059
9905.273438	-54.652225
9948.339844	-55.056873
9991.406250	-55.383175
10034.472656	-56.874710
10077.539062	-57.647873
10120.605469	-56.978989
10163.671875	-56.210400
10206.738281	-55.357170
10249.804688	-54.389992
10292.871094	-53.569386
10335.937500	-53.489548
10379.003906	-53.828140
10422.070312	-53.676361
10465.136719	-54.152008
10508.203125	-55.309891
10551.269531	-56.909840
10594.335938	-56.498695
10637.402344	-54.848587
10680.468750	-54.005592
10723.535156	-53.460831
10766.601562	-53.397449
10809.667969	-53.270882
10852.734375	-54.308456
10895.800781	-53.295769
10938.867188	-52.688667
10981.933594	-53.383556
11025.000000	-54.962048
11068.066406	-53.762249
11111.132812	-52.113235
11154.199219	-51.604816
11197.265625	-53.275738
11240.332031	-54.184521
11283.398438	-56.517471
11326.464844	-56.726479
11369.531250	-55.635170
11412.597656	-54.607697
11455.664062	-55.855869
11498.730469	-57.338970
11541.796875	-56.891434
11584.863281	-55.565166
11627.929688	-55.128910
11670.996094	-54.910805
11714.062500	-55.192562
11757.128906	-56.427299
11800.195312	-56.960503
11843.261719	-57.646088
11886.328125	-56.688450
11929.394531	-56.940609
11972.460938	-56.922428
12015.527344	-56.800289
12058.593750	-56.530365
12101.660156	-58.048637
12144.726562	-58.250141
12187.792969	-56.168980
12230.859375	-54.744549
12273.925781	-55.815292
12316.992188	-56.251114
12360.058594	-55.264023
12403.125000	-53.196636
12446.191406	-52.654835
12489.257812	-52.864246
12532.324219	-52.794647
12575.390625	-52.539238
12618.457031	-51.579300
12661.523438	-50.493710
12704.589844	-50.968071
12747.656250	-51.865551
12790.722656	-51.597977
12833.789062	-51.607384
12876.855469	-51.099884
12919.921875	-50.210560
12962.988281	-49.576996
13006.054688	-48.578232
13049.121094	-47.630562
13092.187500	-47.370869
13135.253906	-47.915043
13178.320312	-49.933372
13221.386719	-51.057621
13264.453125	-48.667191
13307.519531	-47.196381
13350.585938	-48.216255
13393.652344	-48.860020
13436.718750	-47.927872
13479.785156	-46.856888
13522.851562	-46.623241
13565.917969	-47.600761
13608.984375	-47.271461
13652.050781	-46.979675
13695.117188	-47.824387
13738.183594	-48.760063
13781.250000	-49.383514
13824.316406	-48.829777
13867.382812	-48.257931
13910.449219	-48.112759
13953.515625	-48.882019
13996.582031	-49.638660
14039.648438	-49.021702
14082.714844	-48.738892
14125.781250	-49.073643
14168.847656	-49.783592
14211.914062	-51.683323
14254.980469	-53.323921
14298.046875	-51.524029
14341.113281	-50.408504
14384.179688	-50.231438
14427.246094	-49.436134
14470.312500	-48.672295
14513.378906	-48.835125
14556.445312	-49.401634
14599.511719	-48.961983
14642.578125	-47.094250
14685.644531	-46.171516
14728.710938	-46.584751
14771.777344	-46.559284
14814.843750	-46.549145
14857.910156	-46.974239
14900.976562	-47.334480
14944.042969	-47.287392
14987.109375	-46.871616
15030.175781	-46.578972
15073.242188	-46.670788
15116.308594	-47.641827
15159.375000	-48.390667
15202.441406	-48.684799
15245.507812	-49.017216
15288.574219	-49.833511
15331.640625	-50.351311
15374.707031	-49.983910
15417.773438	-49.912327
15460.839844	-48.847664
15503.906250	-46.883415
15546.972656	-45.314690
15590.039062	-45.008427
15633.105469	-44.699669
15676.171875	-44.789867
15719.238281	-44.968811
15762.304688	-45.043484
15805.371094	-44.839424
15848.437500	-45.117367
15891.503906	-45.440586
15934.570312	-45.800327
15977.636719	-47.646896
16020.703125	-48.295544
16063.769531	-47.041340
16106.835938	-45.957153
16149.902344	-45.379002
16192.968750	-46.100777
16236.035156	-47.086918
16279.101562	-46.424019
16322.167969	-45.833366
16365.234375	-45.076767
16408.300781	-43.827560
16451.367188	-43.825802
16494.433594	-44.473175
16537.500000	-44.715416
16580.566406	-45.226082
16623.632812	-45.708958
16666.699219	-45.883430
16709.765625	-48.305351
16752.832031	-49.675297
16795.898438	-48.843330
16838.964844	-49.446011
16882.031250	-47.897438
16925.097656	-47.948650
16968.164062	-48.428223
17011.230469	-46.822227
17054.296875	-46.488712
17097.363281	-47.797012
17140.429688	-49.321152
17183.496094	-50.417168
17226.562500	-50.316662
17269.628906	-49.621231
17312.695312	-50.525875
17355.761719	-50.366562
17398.828125	-49.454414
17441.894531	-49.845123
17484.960938	-51.147259
17528.027344	-50.400276
17571.093750	-49.884727
17614.160156	-51.173790
17657.226562	-50.159847
17700.292969	-49.778786
17743.359375	-51.361950
17786.425781	-53.282913
17829.492188	-51.711346
17872.558594	-48.438995
17915.625000	-48.674328
17958.691406	-51.249226
18001.757812	-49.265884
18044.824219	-47.990139
18087.890625	-47.327728
18130.957031	-48.539146
18174.023438	-48.353630
18217.089844	-46.601803
18260.156250	-47.192383
18303.222656	-48.586830
18346.289062	-49.286037
18389.355469	-49.128254
18432.421875	-50.308537
18475.488281	-50.400021
18518.554688	-49.114277
18561.621094	-48.383503
18604.687500	-49.481705
18647.753906	-51.739819
18690.820312	-50.357971
18733.886719	-49.756172
18776.953125	-50.349327
18820.019531	-50.755405
18863.085938	-50.765778
18906.152344	-50.588051
18949.218750	-50.053249
18992.285156	-50.312012
19035.351562	-50.898277
19078.417969	-50.124638
19121.484375	-50.458443
19164.550781	-51.697460
19207.617188	-52.961826
19250.683594	-53.076591
19293.750000	-51.710796
19336.816406	-50.710373
19379.882812	-51.690319
19422.949219	-52.746422
19466.015625	-52.436920
19509.082031	-51.608654
19552.148438	-51.595695
19595.214844	-52.287048
19638.281250	-52.971127
19681.347656	-53.352509
19724.414062	-53.372593
19767.480469	-54.394554
19810.546875	-55.972958
19853.613281	-55.618233
19896.679688	-55.001072
19939.746094	-53.444462
19982.812500	-53.055714
20025.878906	-54.815266
20068.945312	-54.251575
20112.011719	-53.828850
20155.078125	-52.491249
20198.144531	-51.882210
20241.210938	-54.209518
20284.277344	-55.697533
20327.343750	-54.683479
20370.410156	-53.447926
20413.476562	-53.355110
20456.542969	-53.758808
20499.609375	-54.530876
20542.675781	-53.963879
20585.742188	-52.952717
20628.808594	-52.647709
20671.875000	-52.397533
20714.941406	-53.021152
20758.007812	-53.510918
20801.074219	-53.628342
20844.140625	-53.557011
20887.207031	-54.084507
20930.273438	-54.018230
20973.339844	-52.811741
21016.406250	-52.238941
21059.472656	-53.000298
21102.539062	-54.585960
21145.605469	-56.000900
21188.671875	-54.546474
21231.738281	-54.351883
21274.804688	-55.733086
21317.871094	-54.953022
21360.937500	-54.496853
21404.003906	-55.573215
21447.070312	-55.466942
21490.136719	-56.120434
21533.203125	-57.992996
21576.269531	-59.128307
21619.335938	-58.073433
21662.402344	-58.748287
21705.468750	-58.579971
21748.535156	-57.532345
21791.601562	-58.123631
21834.667969	-58.722790
21877.734375	-58.965294
21920.800781	-60.229870
21963.867188	-58.759506
22006.933594	-57.354263
