周波数 (Hz)	レベル (dB)
43.066406	-31.495523
86.132812	-29.782839
129.199219	-32.434143
172.265625	-40.655869
215.332031	-44.996410
258.398438	-50.385029
301.464844	-50.172684
344.531250	-53.788677
387.597656	-50.530598
430.664062	-50.033459
473.730469	-53.680698
516.796875	-57.412937
559.863281	-58.425438
602.929688	-57.922192
645.996094	-59.344604
689.062500	-59.365051
732.128906	-58.387882
775.195312	-58.223816
818.261719	-58.657898
861.328125	-59.908241
904.394531	-59.255566
947.460938	-58.837574
990.527344	-59.617653
1033.593750	-60.241787
1076.660156	-61.987579
1119.726562	-61.113457
1162.792969	-62.230797
1205.859375	-62.219013
1248.925781	-59.222256
1291.992188	-57.372147
1335.058594	-57.432583
1378.125000	-59.575668
1421.191406	-62.488674
1464.257812	-64.121300
1507.324219	-62.262650
1550.390625	-59.367634
1593.457031	-57.982967
1636.523438	-58.465355
1679.589844	-59.880917
1722.656250	-60.595505
1765.722656	-59.441624
1808.789062	-60.470787
1851.855469	-59.041668
1894.921875	-56.942375
1937.988281	-55.035793
1981.054688	-55.243023
2024.121094	-55.693562
2067.187500	-56.908543
2110.253906	-56.582172
2153.320312	-55.991611
2196.386719	-57.073265
2239.453125	-57.389336
2282.519531	-57.241718
2325.585938	-55.040810
2368.652344	-53.773998
2411.718750	-53.623016
2454.785156	-54.215733
2497.851562	-54.645836
2540.917969	-52.704006
2583.984375	-51.415810
2627.050781	-52.137856
2670.117188	-53.580444
2713.183594	-53.127392
2756.250000	-52.866554
2799.316406	-55.181774
2842.382812	-58.652840
2885.449219	-60.216431
2928.515625	-58.193161
2971.582031	-57.152737
3014.648438	-57.736458
3057.714844	-55.632553
3100.781250	-55.076580
3143.847656	-54.972301
3186.914062	-52.445927
3229.980469	-52.652802
3273.046875	-55.022507
3316.113281	-55.762253
3359.179688	-55.166779
3402.246094	-54.718616
3445.312500	-54.912239
3488.378906	-53.839073
3531.445312	-52.492367
3574.511719	-52.249645
3617.578125	-53.684082
3660.644531	-56.344765
3703.710938	-55.040180
3746.777344	-54.634380
3789.843750	-56.269882
3832.910156	-57.223015
3875.976562	-55.426876
3919.042969	-56.338009
3962.109375	-55.754715
4005.175781	-55.723274
4048.242188	-54.634102
4091.308594	-53.364594
4134.375000	-54.513920
4177.441406	-54.412495
4220.507812	-53.132362
4263.574219	-54.131390
4306.640625	-55.308487
4349.707031	-55.104469
4392.773438	-55.321140
4435.839844	-55.517616
4478.906250	-56.589355
4521.972656	-57.276020
4565.039062	-57.597965
4608.105469	-55.679653
4651.171875	-55.262112
4694.238281	-57.638973
4737.304688	-61.538124
4780.371094	-61.303650
4823.437500	-56.100407
4866.503906	-53.504944
4909.570312	-53.728249
4952.636719	-51.139133
4995.703125	-49.407234
5038.769531	-50.510948
5081.835938	-52.808582
5124.902344	-55.695618
5167.968750	-58.907478
5211.035156	-59.548153
5254.101562	-58.596653
5297.167969	-58.000248
5340.234375	-57.518211
5383.300781	-56.412285
5426.367188	-58.787655
5469.433594	-59.937199
5512.500000	-60.309357
5555.566406	-57.792053
5598.632812	-55.853603
5641.699219	-55.758030
5684.765625	-56.745403
5727.832031	-58.499664
5770.898438	-58.189152
5813.964844	-56.508160
5857.031250	-56.130249
5900.097656	-56.343533
5943.164062	-57.334949
5986.230469	-57.087940
6029.296875	-58.032158
6072.363281	-57.557674
6115.429688	-57.375469
6158.496094	-57.861347
6201.562500	-58.178593
6244.628906	-56.756332
6287.695312	-56.853401
6330.761719	-58.689571
6373.828125	-59.712173
6416.894531	-59.023098
6459.960938	-57.839108
6503.027344	-56.402702
6546.093750	-56.399044
6589.160156	-57.048203
6632.226562	-57.578449
6675.292969	-58.934425
6718.359375	-60.273003
6761.425781	-60.402885
6804.492188	-59.533436
6847.558594	-59.604477
6890.625000	-59.662220
6933.691406	-60.494881
6976.757812	-58.625374
7019.824219	-57.618912
7062.890625	-56.587681
7105.957031	-55.229687
7149.023438	-55.708977
7192.089844	-55.248539
7235.156250	-53.514194
7278.222656	-53.302719
7321.289062	-52.409943
7364.355469	-51.530380
7407.421875	-51.012489
7450.488281	-51.864334
7493.554688	-52.337120
7536.621094	-52.066730
7579.687500	-55.804039
7622.753906	-55.614422
7665.820312	-52.392445
7708.886719	-53.221386
7751.953125	-55.911449
7795.019531	-56.032406
7838.085938	-53.800098
7881.152344	-54.570789
7924.218750	-56.529045
7967.285156	-56.153271
8010.351562	-55.883499
8053.417969	-57.611946
8096.484375	-61.843334
8139.550781	-61.854816
8182.617188	-59.948296
8225.683594	-60.896263
8268.750000	-61.062851
8311.816406	-60.320282
8354.882812	-60.983414
8397.949219	-61.443680
8441.015625	-59.845974
8484.082031	-59.376129
8527.148438	-57.385735
8570.214844	-54.821762
8613.281250	-52.315388
8656.347656	-51.202595
8699.414062	-51.068432
8742.480469	-51.134388
8785.546875	-51.204826
8828.613281	-51.400131
8871.679688	-50.799824
8914.746094	-49.662113
8957.812500	-49.949757
9000.878906	-51.723457
9043.945312	-53.679661
9087.011719	-54.853546
9130.078125	-56.316051
9173.144531	-59.431084
9216.210938	-59.445961
9259.277344	-62.224964
9302.343750	-60.261284
9345.410156	-59.653488
9388.476562	-59.206505
9431.542969	-58.718384
9474.609375	-56.800354
9517.675781	-55.607670
9560.742188	-55.226749
9603.808594	-53.541279
9646.875000	-53.683846
9689.941406	-55.478130
9733.007812	-55.933998
9776.074219	-56.449455
9819.140625	-56.844666
9862.207031	-57.081543
9905.273438	-57.223919
9948.339844	-57.137032
9991.406250	-56.253082
10034.472656	-54.873745
10077.539062	-56.973503
10120.605469	-56.987846
10163.671875	-55.601212
10206.738281	-54.016468
10249.804688	-51.714092
10292.871094	-51.474934
10335.937500	-53.335266
10379.003906	-54.240910
10422.070312	-55.300392
10465.136719	-55.649887
10508.203125	-55.597046
10551.269531	-57.411671
10594.335938	-59.895996
10637.402344	-59.338760
10680.468750	-59.280792
10723.535156	-59.302307
10766.601562	-59.171474
10809.667969	-59.938091
10852.734375	-59.966225
10895.800781	-58.827930
10938.867188	-58.865757
10981.933594	-62.729286
11025.000000	-59.605797
11068.066406	-57.015774
11111.132812	-57.203739
11154.199219	-56.119347
11197.265625	-55.628059
11240.332031	-55.572842
11283.398438	-56.091198
11326.464844	-56.902424
11369.531250	-56.297951
11412.597656	-54.675556
11455.664062	-52.889389
11498.730469	-53.260242
11541.796875	-54.494289
11584.863281	-54.626720
11627.929688	-54.660057
11670.996094	-55.197094
11714.062500	-54.323860
11757.128906	-53.855499
11800.195312	-53.668827
11843.261719	-54.728840
11886.328125	-55.710598
11929.394531	-55.168850
11972.460938	-55.359184
12015.527344	-56.337090
12058.593750	-57.161255
12101.660156	-58.183167
12144.726562	-56.782757
12187.792969	-56.536163
12230.859375	-55.636333
12273.925781	-54.744995
12316.992188	-53.581818
12360.058594	-52.740444
12403.125000	-52.538528
12446.191406	-52.852779
12489.257812	-54.681297
12532.324219	-58.263939
12575.390625	-58.101460
12618.457031	-57.226631
12661.523438	-55.694378
12704.589844	-55.379375
12747.656250	-54.923153
12790.722656	-55.100353
12833.789062	-55.217247
12876.855469	-55.040630
12919.921875	-54.858326
12962.988281	-55.491604
13006.054688	-55.816952
13049.121094	-54.664803
13092.187500	-52.428925
13135.253906	-51.695133
13178.320312	-51.648457
13221.386719	-51.739475
13264.453125	-51.474823
13307.519531	-51.771786
13350.585938	-53.040680
13393.652344	-53.857189
13436.718750	-53.970551
13479.785156	-54.284756
13522.851562	-53.566383
13565.917969	-52.339500
13608.984375	-52.831566
13652.050781	-54.991268
13695.117188	-53.521172
13738.183594	-51.111870
13781.250000	-50.031857
13824.316406	-51.037064
13867.382812	-51.740562
13910.449219	-51.440823
13953.515625	-52.038734
13996.582031	-53.179989
14039.648438	-54.606186
14082.714844	-56.072353
14125.781250	-55.185287
14168.847656	-53.238750
14211.914062	-52.313671
14254.980469	-52.000324
14298.046875	-50.953930
14341.113281	-48.873882
14384.179688	-49.268066
14427.246094	-50.270908
14470.312500	-48.131699
14513.378906	-45.590862
14556.445312	-44.451656
14599.511719	-45.225559
14642.578125	-45.775066
14685.644531	-46.238937
14728.710938	-47.509472
14771.777344	-47.714272
14814.843750	-47.788681
14857.910156	-46.972717
14900.976562	-46.407642
14944.042969	-46.123390
14987.109375	-45.388565
15030.175781	-44.193157
15073.242188	-42.949036
15116.308594	-42.833492
15159.375000	-44.136299
15202.441406	-45.319843
15245.507812	-45.615406
15288.574219	-45.522717
15331.640625	-46.044060
15374.707031	-46.703011
15417.773438	-47.812740
15460.839844	-48.181007
15503.906250	-46.821228
15546.972656	-46.262390
15590.039062	-47.137379
15633.105469	-49.174397
15676.171875	-49.536392
15719.238281	-47.273853
15762.304688	-47.735577
15805.371094	-48.574062
15848.437500	-48.222580
15891.503906	-49.443489
15934.570312	-51.068714
15977.636719	-52.143314
16020.703125	-51.547283
16063.769531	-50.487442
16106.835938	-47.540146
16149.902344	-43.936371
16192.968750	-42.293629
16236.035156	-41.527969
16279.101562	-41.084232
16322.167969	-40.882626
16365.234375	-40.898403
16408.300781	-40.830662
16451.367188	-41.034271
16494.433594	-42.198502
16537.500000	-43.052719
16580.566406	-42.871532
16623.632812	-42.501003
16666.699219	-43.060326
16709.765625	-43.235722
16752.832031	-43.753456
16795.898438	-44.557064
16838.964844	-44.846699
16882.031250	-45.524136
16925.097656	-46.719540
16968.164062	-47.517529
17011.230469	-47.555038
17054.296875	-47.788288
17097.363281	-48.172852
17140.429688	-48.561535
17183.496094	-49.014248
17226.562500	-47.042149
17269.628906	-45.450085
17312.695312	-45.110565
17355.761719	-45.856697
17398.828125	-46.936543
17441.894531	-46.367233
17484.960938	-47.408806
17528.027344	-50.475067
17571.093750	-52.351818
17614.160156	-51.748787
17657.226562	-51.616863
17700.292969	-51.121426
17743.359375	-51.105129
17786.425781	-51.737713
17829.492188	-51.184834
17872.558594	-49.000172
17915.625000	-47.220203
17958.691406	-47.280781
18001.757812	-47.000511
18044.824219	-46.016182
18087.890625	-45.596817
18130.957031	-44.975185
18174.023438	-44.820236
18217.089844	-44.700249
18260.156250	-44.853836
18303.222656	-44.870415
18346.289062	-44.960365
18389.355469	-45.233490
18432.421875	-44.806652
18475.488281	-44.812775
18518.554688	-45.983479
18561.621094	-47.148117
18604.687500	-47.513866
18647.753906	-47.687122
18690.820312	-47.686058
18733.886719	-47.474495
18776.953125	-48.284161
18820.019531	-50.176014
18863.085938	-50.821362
18906.152344	-49.351768
18949.218750	-48.640041
18992.285156	-48.522381
19035.351562	-48.503170
19078.417969	-49.291595
19121.484375	-48.660629
19164.550781	-48.275887
19207.617188	-47.441143
19250.683594	-47.032227
19293.750000	-46.932270
19336.816406	-47.036705
19379.882812	-47.704117
19422.949219	-48.206242
19466.015625	-50.807949
19509.082031	-54.656700
19552.148438	-56.615810
19595.214844	-55.166801
19638.281250	-53.166550
19681.347656	-52.079578
19724.414062	-52.020992
19767.480469	-51.991043
19810.546875	-50.917831
19853.613281	-50.427357
19896.679688	-50.399593
19939.746094	-50.366341
19982.812500	-51.263191
20025.878906	-52.593563
20068.945312	-52.433666
20112.011719	-50.674355
20155.078125	-50.245548
20198.144531	-51.199413
20241.210938	-52.462025
20284.277344	-53.855316
20327.343750	-55.463100
20370.410156	-55.297058
20413.476562	-55.011185
20456.542969	-56.207684
20499.609375	-55.494442
20542.675781	-55.741852
20585.742188	-55.270222
20628.808594	-54.550938
20671.875000	-53.807976
20714.941406	-52.937023
20758.007812	-52.229752
20801.074219	-51.223530
20844.140625	-50.840683
20887.207031	-50.401875
20930.273438	-50.193024
20973.339844	-50.292458
21016.406250	-51.045860
21059.472656	-52.404160
21102.539062	-53.188660
21145.605469	-52.772816
21188.671875	-53.877705
21231.738281	-56.354652
21274.804688	-57.379154
21317.871094	-58.005711
21360.937500	-56.627987
21404.003906	-56.261070
21447.070312	-56.599304
21490.136719	-56.206001
21533.203125	-57.094143
21576.269531	-56.882191
21619.335938	-56.528889
21662.402344	-56.897221
21705.468750	-57.764847
21748.535156	-57.376873
21791.601562	-56.344479
21834.667969	-55.351463
21877.734375	-54.684540
21920.800781	-53.751659
21963.867188	-53.196434
22006.933594	-52.307663
