周波数 (Hz)	レベル (dB)
43.066406	-31.148266
86.132812	-28.291239
129.199219	-29.900780
172.265625	-35.215248
215.332031	-36.868431
258.398438	-42.303455
301.464844	-45.059509
344.531250	-47.115597
387.597656	-44.869907
430.664062	-44.276463
473.730469	-48.040493
516.796875	-50.906986
559.863281	-55.873882
602.929688	-60.640770
645.996094	-62.057095
689.062500	-61.723450
732.128906	-60.994724
775.195312	-61.538441
818.261719	-56.671162
861.328125	-55.450809
904.394531	-56.863731
947.460938	-56.634892
990.527344	-54.709610
1033.593750	-55.750160
1076.660156	-56.585316
1119.726562	-55.488232
1162.792969	-56.669952
1205.859375	-59.385921
1248.925781	-58.353722
1291.992188	-58.845226
1335.058594	-58.434093
1378.125000	-58.911186
1421.191406	-60.589787
1464.257812	-59.645802
1507.324219	-57.255711
1550.390625	-54.929859
1593.457031	-53.126328
1636.523438	-53.241917
1679.589844	-52.967224
1722.656250	-52.951736
1765.722656	-52.529156
1808.789062	-54.322929
1851.855469	-56.142433
1894.921875	-55.589367
1937.988281	-55.886120
1981.054688	-55.425396
2024.121094	-56.031574
2067.187500	-58.034088
2110.253906	-59.961544
2153.320312	-61.523567
2196.386719	-61.217632
2239.453125	-57.867973
2282.519531	-54.567638
2325.585938	-51.499920
2368.652344	-49.887802
2411.718750	-50.176849
2454.785156	-52.014790
2497.851562	-54.144264
2540.917969	-54.399029
2583.984375	-56.008904
2627.050781	-58.871704
2670.117188	-57.873165
2713.183594	-57.252499
2756.250000	-57.791115
2799.316406	-58.525070
2842.382812	-58.941181
2885.449219	-59.852619
2928.515625	-61.029255
2971.582031	-59.057362
3014.648438	-56.912197
3057.714844	-55.993618
3100.781250	-56.821999
3143.847656	-58.076992
3186.914062	-59.502224
3229.980469	-58.692963
3273.046875	-57.651428
3316.113281	-57.380962
3359.179688	-56.447895
3402.246094	-56.558311
3445.312500	-58.342102
3488.378906	-57.298775
3531.445312	-55.743305
3574.511719	-54.017151
3617.578125	-52.795975
3660.644531	-52.140408
3703.710938	-52.823414
3746.777344	-53.973991
3789.843750	-53.682259
3832.910156	-53.467094
3875.976562	-54.307163
3919.042969	-55.680923
3962.109375	-57.605854
4005.175781	-57.527653
4048.242188	-57.485798
4091.308594	-57.454655
4134.375000	-58.044636
4177.441406	-57.882694
4220.507812	-56.294044
4263.574219	-56.276672
4306.640625	-57.018948
4349.707031	-56.861332
4392.773438	-57.058079
4435.839844	-56.990391
4478.906250	-55.468925
4521.972656	-54.456619
4565.039062	-55.223667
4608.105469	-58.202740
4651.171875	-59.044128
4694.238281	-57.871845
4737.304688	-56.148155
4780.371094	-55.196552
4823.437500	-54.834461
4866.503906	-53.493458
4909.570312	-52.778019
4952.636719	-53.993889
4995.703125	-56.160763
5038.769531	-57.406673
5081.835938	-56.620327
5124.902344	-55.579346
5167.968750	-55.757225
5211.035156	-57.691284
5254.101562	-58.095737
5297.167969	-55.966541
5340.234375	-55.744995
5383.300781	-57.008453
5426.367188	-59.961197
5469.433594	-63.816479
5512.500000	-64.184792
5555.566406	-60.633945
5598.632812	-59.621746
5641.699219	-59.604473
5684.765625	-58.994694
5727.832031	-57.754971
5770.898438	-56.430073
5813.964844	-56.329082
5857.031250	-57.731018
5900.097656	-58.591019
5943.164062	-59.097908
5986.230469	-59.640484
6029.296875	-59.205673
6072.363281	-57.179882
6115.429688	-54.962971
6158.496094	-54.873150
6201.562500	-54.776474
6244.628906	-54.394539
6287.695312	-55.870029
6330.761719	-59.252823
6373.828125	-58.246941
6416.894531	-57.529522
6459.960938	-59.347618
6503.027344	-60.465397
6546.093750	-59.876209
6589.160156	-60.289883
6632.226562	-60.976868
6675.292969	-62.068684
6718.359375	-64.687477
6761.425781	-62.982090
6804.492188	-61.687222
6847.558594	-60.159557
6890.625000	-57.838093
6933.691406	-54.592140
6976.757812	-52.218727
7019.824219	-51.140907
7062.890625	-50.876320
7105.957031	-50.915855
7149.023438	-51.073223
7192.089844	-52.040611
7235.156250	-53.525627
7278.222656	-55.116875
7321.289062	-54.905037
7364.355469	-53.769104
7407.421875	-53.845543
7450.488281	-54.777973
7493.554688	-55.747417
7536.621094	-56.089127
7579.687500	-57.348763
7622.753906	-59.975010
7665.820312	-59.849266
7708.886719	-57.894009
7751.953125	-57.333893
7795.019531	-58.393097
7838.085938	-57.513420
7881.152344	-58.543449
7924.218750	-59.305050
7967.285156	-59.784584
8010.351562	-59.428143
8053.417969	-59.704948
8096.484375	-58.776630
8139.550781	-57.514015
8182.617188	-58.051895
8225.683594	-60.329372
8268.750000	-62.120422
8311.816406	-64.261658
8354.882812	-65.614723
8397.949219	-63.624744
8441.015625	-63.175591
8484.082031	-64.542023
8527.148438	-63.305439
8570.214844	-59.179539
8613.281250	-58.334496
8656.347656	-58.151752
8699.414062	-57.658699
8742.480469	-58.066013
8785.546875	-58.068008
8828.613281	-58.533020
8871.679688	-60.753216
8914.746094	-60.209942
8957.812500	-57.898354
9000.878906	-57.012871
9043.945312	-56.928749
9087.011719	-57.226894
9130.078125	-57.795517
9173.144531	-57.946156
9216.210938	-58.092670
9259.277344	-59.041828
9302.343750	-59.586960
9345.410156	-58.377899
9388.476562	-57.310055
9431.542969	-57.396564
9474.609375	-57.022602
9517.675781	-55.435085
9560.742188	-53.459412
9603.808594	-53.176037
9646.875000	-53.988533
9689.941406	-55.036743
9733.007812	-55.827053
9776.074219	-54.201546
9819.140625	-54.220592
9862.207031	-55.307888
9905.273438	-54.638264
9948.339844	-53.350838
9991.406250	-52.413689
10034.472656	-52.854355
10077.539062	-54.819088
10120.605469	-57.689617
10163.671875	-59.969509
10206.738281	-57.079918
10249.804688	-54.555767
10292.871094	-53.283241
10335.937500	-52.707806
10379.003906	-53.625633
10422.070312	-55.270313
10465.136719	-58.080441
10508.203125	-59.226772
10551.269531	-57.351704
10594.335938	-55.718845
10637.402344	-55.622963
10680.468750	-57.463123
10723.535156	-56.981937
10766.601562	-56.432022
10809.667969	-55.387817
10852.734375	-54.273777
10895.800781	-54.124134
10938.867188	-53.027420
10981.933594	-52.488380
11025.000000	-52.935749
11068.066406	-53.619286
11111.132812	-51.230663
11154.199219	-48.313618
11197.265625	-47.085552
11240.332031	-47.286865
11283.398438	-48.244244
11326.464844	-50.353020
11369.531250	-52.967220
11412.597656	-54.634209
11455.664062	-54.391171
11498.730469	-53.619934
11541.796875	-53.242722
11584.863281	-53.391434
11627.929688	-51.943684
11670.996094	-50.700516
11714.062500	-50.336372
11757.128906	-49.697567
11800.195312	-49.105343
11843.261719	-48.803440
11886.328125	-47.973850
11929.394531	-47.779652
11972.460938	-48.688171
12015.527344	-49.250702
12058.593750	-48.647278
12101.660156	-47.842392
12144.726562	-48.182301
12187.792969	-49.850307
12230.859375	-51.487473
12273.925781	-53.069302
12316.992188	-53.849522
12360.058594	-53.575195
12403.125000	-55.314224
12446.191406	-54.837559
12489.257812	-52.824127
12532.324219	-52.584667
12575.390625	-52.014915
12618.457031	-51.110126
12661.523438	-51.131443
12704.589844	-51.543392
12747.656250	-51.512257
12790.722656	-51.294113
12833.789062	-50.659874
12876.855469	-49.676537
12919.921875	-48.593853
12962.988281	-48.644691
13006.054688	-50.430553
13049.121094	-52.520767
13092.187500	-51.987774
13135.253906	-49.184986
13178.320312	-47.045582
13221.386719	-47.231022
13264.453125	-48.079029
13307.519531	-47.440041
13350.585938	-46.780815
13393.652344	-46.503616
13436.718750	-46.425117
13479.785156	-47.922131
13522.851562	-50.304649
13565.917969	-51.042019
13608.984375	-51.046440
13652.050781	-50.467205
13695.117188	-49.381634
13738.183594	-49.419147
13781.250000	-48.582180
13824.316406	-48.074284
13867.382812	-49.130096
13910.449219	-50.136513
13953.515625	-49.633659
13996.582031	-49.940971
14039.648438	-51.432831
14082.714844	-52.488583
14125.781250	-52.115536
14168.847656	-52.143444
14211.914062	-51.240078
14254.980469	-50.406906
14298.046875	-51.423420
14341.113281	-51.746605
14384.179688	-51.937489
14427.246094	-51.229450
14470.312500	-50.089985
14513.378906	-48.459667
14556.445312	-48.796604
14599.511719	-50.107964
14642.578125	-48.488647
14685.644531	-48.019081
14728.710938	-47.587055
14771.777344	-47.654572
14814.843750	-48.968086
14857.910156	-48.612442
14900.976562	-46.485165
14944.042969	-45.905731
14987.109375	-47.042652
15030.175781	-47.798004
15073.242188	-47.469810
15116.308594	-48.502602
15159.375000	-51.269604
15202.441406	-51.238808
15245.507812	-49.990967
15288.574219	-50.578861
15331.640625	-52.315479
15374.707031	-51.712860
15417.773438	-51.084717
15460.839844	-52.441940
15503.906250	-51.515453
15546.972656	-49.520363
15590.039062	-48.785576
15633.105469	-48.154106
15676.171875	-48.490929
15719.238281	-49.517647
15762.304688	-48.332207
15805.371094	-47.897491
15848.437500	-49.174305
15891.503906	-49.607685
15934.570312	-47.531094
15977.636719	-46.318333
16020.703125	-46.648701
16063.769531	-47.041039
16106.835938	-46.251133
16149.902344	-45.055653
16192.968750	-44.607212
16236.035156	-44.304810
16279.101562	-43.756695
16322.167969	-43.887554
16365.234375	-44.931122
16408.300781	-45.121109
16451.367188	-44.166847
16494.433594	-44.055759
16537.500000	-44.588039
16580.566406	-45.927105
16623.632812	-46.305565
16666.699219	-45.655602
16709.765625	-45.362358
16752.832031	-45.314743
16795.898438	-43.875423
16838.964844	-43.186867
16882.031250	-43.955364
16925.097656	-45.394337
16968.164062	-45.727314
17011.230469	-45.039383
17054.296875	-45.229298
17097.363281	-46.913170
17140.429688	-50.149757
17183.496094	-50.969505
17226.562500	-47.882572
17269.628906	-46.863979
17312.695312	-47.289417
17355.761719	-47.564365
17398.828125	-47.282112
17441.894531	-46.322598
17484.960938	-45.366749
17528.027344	-45.897964
17571.093750	-46.569065
17614.160156	-46.126801
17657.226562	-45.783703
17700.292969	-46.083111
17743.359375	-46.777241
17786.425781	-46.712543
17829.492188	-46.774704
17872.558594	-48.304680
17915.625000	-50.833984
17958.691406	-51.289375
18001.757812	-51.165485
18044.824219	-50.711849
18087.890625	-51.209469
18130.957031	-53.211071
18174.023438	-52.802376
18217.089844	-52.799477
18260.156250	-52.152718
18303.222656	-53.161850
18346.289062	-53.263515
18389.355469	-51.827751
18432.421875	-51.947292
18475.488281	-50.688229
18518.554688	-49.340843
18561.621094	-49.356823
18604.687500	-48.619522
18647.753906	-48.421528
18690.820312	-49.246990
18733.886719	-49.995602
18776.953125	-51.463165
18820.019531	-52.255848
18863.085938	-51.749859
18906.152344	-50.924809
18949.218750	-50.460678
18992.285156	-51.636181
19035.351562	-51.192379
19078.417969	-48.817833
19121.484375	-49.043133
19164.550781	-49.688824
19207.617188	-49.306244
19250.683594	-50.618816
19293.750000	-52.620178
19336.816406	-52.374775
19379.882812	-51.731800
19422.949219	-51.427235
19466.015625	-50.382053
19509.082031	-50.228416
19552.148438	-51.439434
19595.214844	-51.684669
19638.281250	-53.019295
19681.347656	-53.378666
19724.414062	-51.308971
19767.480469	-50.063946
19810.546875	-50.398548
19853.613281	-50.320988
19896.679688	-50.499641
19939.746094	-51.347004
19982.812500	-52.711273
20025.878906	-52.909622
20068.945312	-51.154453
20112.011719	-50.216331
20155.078125	-50.737698
20198.144531	-50.660374
20241.210938	-50.915916
20284.277344	-52.155457
20327.343750	-53.642929
20370.410156	-52.884243
20413.476562	-50.928642
20456.542969	-50.327042
20499.609375	-51.654049
20542.675781	-54.168591
20585.742188	-56.321110
20628.808594	-58.463852
20671.875000	-57.595829
20714.941406	-56.719509
20758.007812	-56.936214
20801.074219	-57.037659
20844.140625	-55.398689
20887.207031	-53.057354
20930.273438	-52.683826
20973.339844	-53.816437
21016.406250	-53.998016
21059.472656	-53.647812
21102.539062	-52.809883
21145.605469	-51.878178
21188.671875	-52.364204
21231.738281	-53.453659
21274.804688	-52.909630
21317.871094	-53.113232
21360.937500	-54.214668
21404.003906	-54.451653
21447.070312	-54.747536
21490.136719	-54.407116
21533.203125	-54.478043
21576.269531	-54.681072
21619.335938	-54.768677
21662.402344	-54.710941
21705.468750	-54.561958
21748.535156	-54.710861
21791.601562	-54.964962
21834.667969	-55.695587
21877.734375	-55.362469
21920.800781	-55.099220
21963.867188	-55.032944
22006.933594	-55.301846
