周波数 (Hz)	レベル (dB)
43.066406	-32.778961
86.132812	-29.019552
129.199219	-30.774250
172.265625	-37.742020
215.332031	-41.588276
258.398438	-46.799538
301.464844	-46.667591
344.531250	-47.750706
387.597656	-46.273533
430.664062	-47.070492
473.730469	-51.246918
516.796875	-55.521946
559.863281	-59.200138
602.929688	-62.230442
645.996094	-63.176548
689.062500	-62.339638
732.128906	-63.269630
775.195312	-64.501213
818.261719	-62.183491
861.328125	-59.642681
904.394531	-59.727741
947.460938	-59.479588
990.527344	-57.838356
1033.593750	-58.222736
1076.660156	-59.725338
1119.726562	-58.763767
1162.792969	-57.834675
1205.859375	-60.577362
1248.925781	-63.064163
1291.992188	-62.670876
1335.058594	-60.456417
1378.125000	-62.021362
1421.191406	-63.615021
1464.257812	-60.408638
1507.324219	-58.781906
1550.390625	-56.939838
1593.457031	-56.048386
1636.523438	-55.623768
1679.589844	-55.062260
1722.656250	-55.582054
1765.722656	-54.130707
1808.789062	-53.359848
1851.855469	-55.152054
1894.921875	-60.362289
1937.988281	-58.504906
1981.054688	-57.257309
2024.121094	-55.410328
2067.187500	-54.876698
2110.253906	-56.391769
2153.320312	-57.946247
2196.386719	-59.522686
2239.453125	-55.850052
2282.519531	-52.953438
2325.585938	-52.717175
2368.652344	-54.828228
2411.718750	-55.563534
2454.785156	-54.981144
2497.851562	-53.806217
2540.917969	-55.381248
2583.984375	-58.910629
2627.050781	-57.838898
2670.117188	-56.153568
2713.183594	-55.973358
2756.250000	-56.417656
2799.316406	-55.139153
2842.382812	-55.916145
2885.449219	-57.947788
2928.515625	-57.873707
2971.582031	-54.492973
3014.648438	-52.795883
3057.714844	-53.881756
3100.781250	-54.456638
3143.847656	-53.103874
3186.914062	-52.416798
3229.980469	-53.900745
3273.046875	-55.457443
3316.113281	-55.009312
3359.179688	-54.820808
3402.246094	-53.759106
3445.312500	-54.622952
3488.378906	-54.530731
3531.445312	-51.930428
3574.511719	-50.584904
3617.578125	-51.206905
3660.644531	-51.539463
3703.710938	-52.964207
3746.777344	-54.209953
3789.843750	-54.445705
3832.910156	-55.481739
3875.976562	-56.194046
3919.042969	-56.953415
3962.109375	-59.205116
4005.175781	-58.522984
4048.242188	-59.262562
4091.308594	-59.714138
4134.375000	-61.949745
4177.441406	-59.640022
4220.507812	-57.859909
4263.574219	-58.781311
4306.640625	-58.473656
4349.707031	-57.958881
4392.773438	-58.955200
4435.839844	-57.767822
4478.906250	-57.876717
4521.972656	-60.073715
4565.039062	-60.735191
4608.105469	-61.365105
4651.171875	-59.625935
4694.238281	-58.911610
4737.304688	-60.399536
4780.371094	-58.083874
4823.437500	-55.529045
4866.503906	-56.189857
4909.570312	-57.583481
4952.636719	-56.927189
4995.703125	-56.476776
5038.769531	-56.320515
5081.835938	-56.859943
5124.902344	-55.546391
5167.968750	-54.639812
5211.035156	-56.348454
5254.101562	-59.027058
5297.167969	-59.619625
5340.234375	-61.440189
5383.300781	-60.500973
5426.367188	-60.633793
5469.433594	-60.136681
5512.500000	-59.229946
5555.566406	-60.388409
5598.632812	-61.115940
5641.699219	-60.451031
5684.765625	-59.418503
5727.832031	-58.252930
5770.898438	-59.666714
5813.964844	-59.718002
5857.031250	-58.848091
5900.097656	-58.545105
5943.164062	-57.031513
5986.230469	-57.309429
6029.296875	-58.763374
6072.363281	-58.792660
6115.429688	-58.137974
6158.496094	-56.881287
6201.562500	-56.555630
6244.628906	-57.309093
6287.695312	-58.160732
6330.761719	-60.308422
6373.828125	-63.642509
6416.894531	-63.217319
6459.960938	-60.631340
6503.027344	-60.795734
6546.093750	-61.562733
6589.160156	-62.403030
6632.226562	-62.841969
6675.292969	-64.079384
6718.359375	-62.271137
6761.425781	-62.465351
6804.492188	-63.462292
6847.558594	-62.767399
6890.625000	-61.486031
6933.691406	-61.504814
6976.757812	-60.500011
7019.824219	-60.886456
7062.890625	-59.213261
7105.957031	-56.601074
7149.023438	-52.994190
7192.089844	-52.509521
7235.156250	-53.347118
7278.222656	-54.158150
7321.289062	-54.699871
7364.355469	-55.016201
7407.421875	-57.334030
7450.488281	-60.250465
7493.554688	-57.725475
7536.621094	-56.837795
7579.687500	-57.115688
7622.753906	-59.065285
7665.820312	-60.452396
7708.886719	-58.354145
7751.953125	-58.092175
7795.019531	-59.820198
7838.085938	-58.452682
7881.152344	-57.836784
7924.218750	-59.389812
7967.285156	-60.298775
8010.351562	-61.010677
8053.417969	-64.534042
8096.484375	-66.067406
8139.550781	-62.881329
8182.617188	-60.290298
8225.683594	-60.116367
8268.750000	-61.647205
8311.816406	-63.528801
8354.882812	-62.280125
8397.949219	-59.726620
8441.015625	-58.022106
8484.082031	-59.035454
8527.148438	-58.408016
8570.214844	-58.119305
8613.281250	-59.922165
8656.347656	-60.875969
8699.414062	-61.667713
8742.480469	-59.063297
8785.546875	-58.073605
8828.613281	-58.056324
8871.679688	-58.245743
8914.746094	-60.043045
8957.812500	-61.277393
9000.878906	-59.673199
9043.945312	-58.503666
9087.011719	-59.156185
9130.078125	-60.520584
9173.144531	-61.130947
9216.210938	-59.893398
9259.277344	-58.544693
9302.343750	-58.226883
9345.410156	-57.480743
9388.476562	-56.458858
9431.542969	-56.441830
9474.609375	-56.979565
9517.675781	-58.537144
9560.742188	-58.361366
9603.808594	-57.031445
9646.875000	-58.348698
9689.941406	-58.807022
9733.007812	-59.273170
9776.074219	-58.310493
9819.140625	-57.661053
9862.207031	-57.699680
9905.273438	-57.278713
9948.339844	-57.025108
9991.406250	-57.634712
10034.472656	-59.512451
10077.539062	-62.220238
10120.605469	-61.401371
10163.671875	-59.768265
10206.738281	-57.648460
10249.804688	-57.573776
10292.871094	-57.736012
10335.937500	-55.742844
10379.003906	-52.988132
10422.070312	-51.073532
10465.136719	-50.864437
10508.203125	-51.677444
10551.269531	-52.417610
10594.335938	-51.428722
10637.402344	-51.030109
10680.468750	-51.210701
10723.535156	-51.076855
10766.601562	-51.970490
10809.667969	-54.145573
10852.734375	-55.623455
10895.800781	-55.233562
10938.867188	-54.322048
10981.933594	-54.546124
11025.000000	-53.591232
11068.066406	-51.104805
11111.132812	-51.476284
11154.199219	-53.321850
11197.265625	-54.177944
11240.332031	-52.723526
11283.398438	-51.824146
11326.464844	-52.445499
11369.531250	-53.672825
11412.597656	-54.434662
11455.664062	-53.320538
11498.730469	-52.043228
11541.796875	-51.245018
11584.863281	-50.313114
11627.929688	-50.533810
11670.996094	-51.398808
11714.062500	-52.834938
11757.128906	-54.070240
11800.195312	-54.343231
11843.261719	-54.839600
11886.328125	-55.067253
11929.394531	-53.652042
11972.460938	-53.557468
12015.527344	-51.565037
12058.593750	-50.111782
12101.660156	-49.715431
12144.726562	-50.527611
12187.792969	-51.487289
12230.859375	-51.894829
12273.925781	-51.545094
12316.992188	-50.599442
12360.058594	-51.052395
12403.125000	-52.347828
12446.191406	-53.352299
12489.257812	-53.074310
12532.324219	-52.898716
12575.390625	-53.620937
12618.457031	-53.364269
12661.523438	-53.386196
12704.589844	-54.197376
12747.656250	-54.092335
12790.722656	-53.740135
12833.789062	-53.315823
12876.855469	-53.879597
12919.921875	-55.209713
12962.988281	-55.094055
13006.054688	-55.485668
13049.121094	-55.227875
13092.187500	-54.975708
13135.253906	-56.080235
13178.320312	-55.065014
13221.386719	-54.929310
13264.453125	-54.645920
13307.519531	-54.918339
13350.585938	-54.415844
13393.652344	-53.335907
13436.718750	-51.932529
13479.785156	-52.670868
13522.851562	-55.011265
13565.917969	-52.909210
13608.984375	-51.596153
13652.050781	-51.803036
13695.117188	-50.877045
13738.183594	-50.673492
13781.250000	-50.141563
13824.316406	-50.292633
13867.382812	-51.748501
13910.449219	-53.223003
13953.515625	-52.952736
13996.582031	-51.688492
14039.648438	-52.075836
14082.714844	-52.989151
14125.781250	-52.763729
14168.847656	-51.263184
14211.914062	-51.608898
14254.980469	-53.361340
14298.046875	-53.643013
14341.113281	-55.185703
14384.179688	-56.184566
14427.246094	-51.637745
14470.312500	-49.490334
14513.378906	-48.935379
14556.445312	-50.085449
14599.511719	-51.404888
14642.578125	-53.152412
14685.644531	-53.405140
14728.710938	-54.250149
14771.777344	-55.246986
14814.843750	-55.026630
14857.910156	-52.549000
14900.976562	-51.272682
14944.042969	-51.284645
14987.109375	-51.280506
15030.175781	-52.452553
15073.242188	-53.770451
15116.308594	-54.320580
15159.375000	-53.241333
15202.441406	-52.512829
15245.507812	-51.735775
15288.574219	-52.576336
15331.640625	-55.276936
15374.707031	-54.518200
15417.773438	-53.230873
15460.839844	-49.874626
15503.906250	-48.704456
15546.972656	-48.945259
15590.039062	-48.832191
15633.105469	-46.820206
15676.171875	-46.298706
15719.238281	-47.856049
15762.304688	-47.636177
15805.371094	-47.661808
15848.437500	-49.157570
15891.503906	-50.360325
15934.570312	-49.282375
15977.636719	-49.258533
16020.703125	-50.813267
16063.769531	-49.317917
16106.835938	-47.341248
16149.902344	-46.026512
16192.968750	-46.268349
16236.035156	-47.779144
16279.101562	-46.828068
16322.167969	-45.131130
16365.234375	-44.196457
16408.300781	-44.876331
16451.367188	-45.664387
16494.433594	-47.609123
16537.500000	-48.309727
16580.566406	-49.212742
16623.632812	-49.406570
16666.699219	-47.975525
16709.765625	-47.631912
16752.832031	-47.372562
16795.898438	-47.838287
16838.964844	-48.762764
16882.031250	-50.131882
16925.097656	-49.495518
16968.164062	-49.106510
17011.230469	-48.853207
17054.296875	-48.462303
17097.363281	-50.439873
17140.429688	-51.432701
17183.496094	-49.204651
17226.562500	-48.635941
17269.628906	-47.138081
17312.695312	-46.740379
17355.761719	-48.742676
17398.828125	-48.644127
17441.894531	-48.467224
17484.960938	-49.044369
17528.027344	-48.533062
17571.093750	-48.108231
17614.160156	-46.488094
17657.226562	-46.347939
17700.292969	-47.664051
17743.359375	-47.911781
17786.425781	-47.928478
17829.492188	-48.946270
17872.558594	-48.364605
17915.625000	-47.919479
17958.691406	-47.893291
18001.757812	-47.988049
18044.824219	-46.863213
18087.890625	-46.206783
18130.957031	-47.474941
18174.023438	-46.286663
18217.089844	-45.973927
18260.156250	-46.968529
18303.222656	-47.178539
18346.289062	-47.499767
18389.355469	-48.765858
18432.421875	-49.870697
18475.488281	-49.700966
18518.554688	-49.450531
18561.621094	-49.122375
18604.687500	-48.875504
18647.753906	-49.003567
18690.820312	-50.885494
18733.886719	-53.152157
18776.953125	-52.260056
18820.019531	-51.382824
18863.085938	-50.729492
18906.152344	-50.859161
18949.218750	-51.093506
18992.285156	-50.811180
19035.351562	-49.888622
19078.417969	-49.493889
19121.484375	-50.972740
19164.550781	-52.349472
19207.617188	-53.019360
19250.683594	-51.620739
19293.750000	-50.429333
19336.816406	-50.270870
19379.882812	-51.577305
19422.949219	-53.696426
19466.015625	-55.436031
19509.082031	-55.659554
19552.148438	-55.242249
19595.214844	-54.477791
19638.281250	-54.466667
19681.347656	-53.087418
19724.414062	-50.982777
19767.480469	-50.918041
19810.546875	-51.772316
19853.613281	-50.578136
19896.679688	-50.324142
19939.746094	-50.332264
19982.812500	-50.417324
20025.878906	-50.624691
20068.945312	-51.206642
20112.011719	-52.325584
20155.078125	-54.126293
20198.144531	-54.455276
20241.210938	-54.244308
20284.277344	-52.670132
20327.343750	-53.032372
20370.410156	-55.990028
20413.476562	-57.671532
20456.542969	-56.873482
20499.609375	-54.273251
20542.675781	-53.023888
20585.742188	-52.303303
20628.808594	-51.563694
20671.875000	-51.568024
20714.941406	-51.885601
20758.007812	-53.152092
20801.074219	-54.200630
20844.140625	-53.228962
20887.207031	-51.122734
20930.273438	-50.786991
20973.339844	-51.589890
21016.406250	-51.950207
21059.472656	-51.923126
21102.539062	-51.614414
21145.605469	-52.714306
21188.671875	-54.013550
21231.738281	-54.278160
21274.804688	-54.647038
21317.871094	-54.167789
21360.937500	-55.095253
21404.003906	-57.369698
21447.070312	-59.587807
21490.136719	-59.769699
21533.203125	-59.927795
21576.269531	-62.232349
21619.335938	-63.577759
21662.402344	-60.879234
21705.468750	-61.473255
21748.535156	-60.673908
21791.601562	-59.808136
21834.667969	-60.430107
21877.734375	-61.870491
21920.800781	-59.974255
21963.867188	-58.029594
22006.933594	-57.180054
