周波数 (Hz)	レベル (dB)
43.066406	-29.802614
86.132812	-25.671684
129.199219	-27.490929
172.265625	-35.324215
215.332031	-38.268620
258.398438	-41.894939
301.464844	-40.262245
344.531250	-38.523293
387.597656	-38.827084
430.664062	-39.614155
473.730469	-43.477810
516.796875	-48.702164
559.863281	-49.951515
602.929688	-51.234379
645.996094	-52.731091
689.062500	-49.892456
732.128906	-42.954010
775.195312	-38.914597
818.261719	-37.967602
861.328125	-41.334686
904.394531	-47.264488
947.460938	-52.749580
990.527344	-51.253109
1033.593750	-46.217133
1076.660156	-45.032402
1119.726562	-46.855747
1162.792969	-48.098606
1205.859375	-47.644299
1248.925781	-46.128498
1291.992188	-44.237938
1335.058594	-43.182686
1378.125000	-41.052898
1421.191406	-40.179585
1464.257812	-42.234394
1507.324219	-48.295986
1550.390625	-44.362930
1593.457031	-41.748440
1636.523438	-41.851925
1679.589844	-41.943096
1722.656250	-40.124393
1765.722656	-38.754444
1808.789062	-39.099129
1851.855469	-41.659279
1894.921875	-46.040237
1937.988281	-49.736591
1981.054688	-46.528732
2024.121094	-43.692131
2067.187500	-42.371284
2110.253906	-42.056282
2153.320312	-42.978706
2196.386719	-45.220207
2239.453125	-48.530823
2282.519531	-50.348618
2325.585938	-47.674217
2368.652344	-47.579105
2411.718750	-47.583668
2454.785156	-45.995331
2497.851562	-43.604557
2540.917969	-41.899204
2583.984375	-42.495956
2627.050781	-44.589745
2670.117188	-45.957489
2713.183594	-45.512871
2756.250000	-47.124435
2799.316406	-47.489357
2842.382812	-44.675076
2885.449219	-43.163921
2928.515625	-43.143822
2971.582031	-43.224163
3014.648438	-44.340759
3057.714844	-45.603821
3100.781250	-45.739952
3143.847656	-45.672787
3186.914062	-47.813560
3229.980469	-48.985622
3273.046875	-47.624973
3316.113281	-43.024803
3359.179688	-40.261860
3402.246094	-40.012569
3445.312500	-41.225227
3488.378906	-42.518513
3531.445312	-43.223076
3574.511719	-43.304375
3617.578125	-42.871437
3660.644531	-43.768406
3703.710938	-45.930183
3746.777344	-48.787758
3789.843750	-50.193127
3832.910156	-49.726765
3875.976562	-49.200214
3919.042969	-49.462200
3962.109375	-50.397011
4005.175781	-49.174419
4048.242188	-46.718372
4091.308594	-44.456322
4134.375000	-42.383659
4177.441406	-41.594345
4220.507812	-42.088001
4263.574219	-43.346825
4306.640625	-45.779842
4349.707031	-46.756153
4392.773438	-46.559242
4435.839844	-48.283756
4478.906250	-47.888847
4521.972656	-47.006512
4565.039062	-47.762497
4608.105469	-50.400658
4651.171875	-47.153316
4694.238281	-44.227448
4737.304688	-45.681316
4780.371094	-48.187119
4823.437500	-45.046188
4866.503906	-42.659306
4909.570312	-44.075306
4952.636719	-45.461296
4995.703125	-42.951103
5038.769531	-42.342316
5081.835938	-44.234230
5124.902344	-45.239738
5167.968750	-45.572926
5211.035156	-44.476135
5254.101562	-42.101990
5297.167969	-41.876011
5340.234375	-44.874832
5383.300781	-49.362537
5426.367188	-50.047581
5469.433594	-47.579311
5512.500000	-45.794884
5555.566406	-46.622547
5598.632812	-49.792057
5641.699219	-50.981949
5684.765625	-50.868114
5727.832031	-52.258472
5770.898438	-52.943638
5813.964844	-51.313915
5857.031250	-49.849689
5900.097656	-49.258713
5943.164062	-48.344597
5986.230469	-46.556606
6029.296875	-45.122219
6072.363281	-45.401970
6115.429688	-47.323524
6158.496094	-48.328590
6201.562500	-46.066547
6244.628906	-46.207634
6287.695312	-50.430271
6330.761719	-51.654694
6373.828125	-49.859657
6416.894531	-49.615616
6459.960938	-51.493423
6503.027344	-53.756615
6546.093750	-50.794109
6589.160156	-49.645462
6632.226562	-53.671799
6675.292969	-55.918556
6718.359375	-50.452209
6761.425781	-50.386265
6804.492188	-51.658890
6847.558594	-51.386902
6890.625000	-49.715260
6933.691406	-49.034241
6976.757812	-49.039017
7019.824219	-48.773106
7062.890625	-48.260361
7105.957031	-49.240437
7149.023438	-47.760216
7192.089844	-44.290527
7235.156250	-43.144718
7278.222656	-44.568130
7321.289062	-45.830753
7364.355469	-44.037380
7407.421875	-42.740005
7450.488281	-43.681751
7493.554688	-45.733952
7536.621094	-46.294426
7579.687500	-45.395798
7622.753906	-44.933128
7665.820312	-46.157253
7708.886719	-48.355591
7751.953125	-49.705547
7795.019531	-50.023647
7838.085938	-50.915493
7881.152344	-52.365543
7924.218750	-56.129593
7967.285156	-58.048424
8010.351562	-58.940308
8053.417969	-56.069050
8096.484375	-52.893562
8139.550781	-50.733772
8182.617188	-48.130680
8225.683594	-47.583427
8268.750000	-47.515453
8311.816406	-46.472916
8354.882812	-45.789196
8397.949219	-45.254581
8441.015625	-44.812263
8484.082031	-45.349941
8527.148438	-45.184406
8570.214844	-45.285378
8613.281250	-45.360714
8656.347656	-46.271019
8699.414062	-46.805355
8742.480469	-47.795052
8785.546875	-48.824635
8828.613281	-48.567741
8871.679688	-48.691639
8914.746094	-47.561504
8957.812500	-45.170460
9000.878906	-43.904930
9043.945312	-44.854324
9087.011719	-45.842350
9130.078125	-45.664127
9173.144531	-45.749973
9216.210938	-45.412395
9259.277344	-45.174564
9302.343750	-44.694118
9345.410156	-43.916351
9388.476562	-43.810158
9431.542969	-44.044559
9474.609375	-45.599342
9517.675781	-47.157791
9560.742188	-46.527397
9603.808594	-47.243767
9646.875000	-49.106213
9689.941406	-48.460480
9733.007812	-48.075760
9776.074219	-48.435539
9819.140625	-48.923859
9862.207031	-50.174324
9905.273438	-49.549072
9948.339844	-49.893936
9991.406250	-47.247787
10034.472656	-43.287407
10077.539062	-43.152714
10120.605469	-46.042404
10163.671875	-50.336926
10206.738281	-50.496719
10249.804688	-47.043011
10292.871094	-45.562279
10335.937500	-47.713207
10379.003906	-49.630356
10422.070312	-48.513119
10465.136719	-47.216866
10508.203125	-48.263458
10551.269531	-49.340187
10594.335938	-47.711887
10637.402344	-46.909115
10680.468750	-47.008888
10723.535156	-47.838356
10766.601562	-45.932148
10809.667969	-44.368176
10852.734375	-44.887119
10895.800781	-46.100384
10938.867188	-46.597366
10981.933594	-46.269093
11025.000000	-44.595486
11068.066406	-45.078304
11111.132812	-48.340225
11154.199219	-49.756821
11197.265625	-48.446548
11240.332031	-46.990845
11283.398438	-46.552261
11326.464844	-46.315205
11369.531250	-46.208447
11412.597656	-46.716251
11455.664062	-44.939220
11498.730469	-43.843124
11541.796875	-42.896465
11584.863281	-42.985855
11627.929688	-44.207535
11670.996094	-45.400528
11714.062500	-44.819733
11757.128906	-43.240742
11800.195312	-42.869686
11843.261719	-44.239235
11886.328125	-43.439201
11929.394531	-42.923210
11972.460938	-44.602665
12015.527344	-46.297092
12058.593750	-44.899445
12101.660156	-43.995396
12144.726562	-45.989079
12187.792969	-49.531235
12230.859375	-46.522839
12273.925781	-43.830692
12316.992188	-43.962902
12360.058594	-45.174461
12403.125000	-43.968559
12446.191406	-45.248493
12489.257812	-47.647449
12532.324219	-44.949795
12575.390625	-43.064060
12618.457031	-40.970852
12661.523438	-39.444332
12704.589844	-38.769291
12747.656250	-38.165993
12790.722656	-37.864262
12833.789062	-38.556458
12876.855469	-40.656765
12919.921875	-42.143768
12962.988281	-42.155155
13006.054688	-42.945862
13049.121094	-43.748486
13092.187500	-40.418522
13135.253906	-38.111584
13178.320312	-37.587757
13221.386719	-37.516239
13264.453125	-38.492367
13307.519531	-39.496872
13350.585938	-40.400513
13393.652344	-42.417175
13436.718750	-44.860210
13479.785156	-46.552860
13522.851562	-47.530846
13565.917969	-47.090187
13608.984375	-45.892456
13652.050781	-45.241772
13695.117188	-44.057831
13738.183594	-40.990074
13781.250000	-41.135170
13824.316406	-43.926994
13867.382812	-45.769890
13910.449219	-42.253147
13953.515625	-39.728184
13996.582031	-39.204460
14039.648438	-40.013371
14082.714844	-42.739388
14125.781250	-45.543758
14168.847656	-46.686695
14211.914062	-45.666603
14254.980469	-44.789177
14298.046875	-46.944393
14341.113281	-48.260723
14384.179688	-45.053516
14427.246094	-41.283699
14470.312500	-38.467720
14513.378906	-38.724514
14556.445312	-41.906506
14599.511719	-41.795219
14642.578125	-38.838345
14685.644531	-39.913902
14728.710938	-42.843708
14771.777344	-45.078480
14814.843750	-40.202312
14857.910156	-36.111797
14900.976562	-36.219593
14944.042969	-39.520782
14987.109375	-42.050095
15030.175781	-41.399529
15073.242188	-43.609100
15116.308594	-46.172306
15159.375000	-46.283825
15202.441406	-47.258755
15245.507812	-43.953117
15288.574219	-41.791168
15331.640625	-42.000439
15374.707031	-41.025501
15417.773438	-37.018398
15460.839844	-36.910137
15503.906250	-39.326576
15546.972656	-39.567650
15590.039062	-41.198692
15633.105469	-41.958847
15676.171875	-40.345722
15719.238281	-39.558140
15762.304688	-38.788845
15805.371094	-38.694809
15848.437500	-38.283337
15891.503906	-39.542156
15934.570312	-38.944916
15977.636719	-35.430870
16020.703125	-33.438595
16063.769531	-34.612026
16106.835938	-38.993702
16149.902344	-37.187881
16192.968750	-35.025284
16236.035156	-35.899193
16279.101562	-38.717896
16322.167969	-39.977974
16365.234375	-37.105961
16408.300781	-35.871807
16451.367188	-37.353924
16494.433594	-40.109203
16537.500000	-41.965736
16580.566406	-41.078373
16623.632812	-38.277534
16666.699219	-36.032505
16709.765625	-35.981030
16752.832031	-37.167618
16795.898438	-36.737839
16838.964844	-36.677120
16882.031250	-35.201080
16925.097656	-34.635860
16968.164062	-37.760021
17011.230469	-42.903194
17054.296875	-41.886772
17097.363281	-41.154800
17140.429688	-39.708622
17183.496094	-39.224499
17226.562500	-40.105671
17269.628906	-40.285091
17312.695312	-39.343410
17355.761719	-39.417450
17398.828125	-38.854813
17441.894531	-39.302418
17484.960938	-39.421928
17528.027344	-37.907551
17571.093750	-37.156048
17614.160156	-36.723652
17657.226562	-37.190777
17700.292969	-38.663483
17743.359375	-40.500370
17786.425781	-41.265793
17829.492188	-40.918156
17872.558594	-41.422230
17915.625000	-41.680206
17958.691406	-39.834534
18001.757812	-40.124313
18044.824219	-41.652710
18087.890625	-42.190788
18130.957031	-41.176964
18174.023438	-41.518154
18217.089844	-41.058605
18260.156250	-40.276527
18303.222656	-38.799278
18346.289062	-36.230350
18389.355469	-35.697052
18432.421875	-36.263115
18475.488281	-36.457024
18518.554688	-36.357471
18561.621094	-36.690979
18604.687500	-39.086155
18647.753906	-42.759338
18690.820312	-42.393574
18733.886719	-40.976303
18776.953125	-43.204895
18820.019531	-44.213001
18863.085938	-43.186878
18906.152344	-42.310314
18949.218750	-41.665539
18992.285156	-40.223167
19035.351562	-40.786495
19078.417969	-41.555786
19121.484375	-41.541046
19164.550781	-41.940029
19207.617188	-41.340679
19250.683594	-40.325527
19293.750000	-39.416744
19336.816406	-38.958874
19379.882812	-39.211716
19422.949219	-39.881790
19466.015625	-41.717934
19509.082031	-45.329521
19552.148438	-50.331646
19595.214844	-45.915783
19638.281250	-44.286110
19681.347656	-44.102829
19724.414062	-42.379852
19767.480469	-41.347122
19810.546875	-43.271606
19853.613281	-43.891388
19896.679688	-42.956554
19939.746094	-43.290131
19982.812500	-45.040859
20025.878906	-44.357208
20068.945312	-39.583797
20112.011719	-36.908718
20155.078125	-36.203297
20198.144531	-36.725342
20241.210938	-37.221710
20284.277344	-37.314381
20327.343750	-36.579441
20370.410156	-35.995434
20413.476562	-37.156315
20456.542969	-40.484295
20499.609375	-44.014713
20542.675781	-44.878677
20585.742188	-44.302238
20628.808594	-44.725742
20671.875000	-45.892895
20714.941406	-48.337582
20758.007812	-47.896709
20801.074219	-46.089348
20844.140625	-44.100437
20887.207031	-42.318089
20930.273438	-41.658722
20973.339844	-43.092960
21016.406250	-44.160007
21059.472656	-43.197208
21102.539062	-42.355419
21145.605469	-42.205292
21188.671875	-42.513821
21231.738281	-44.484612
21274.804688	-46.790092
21317.871094	-45.036915
21360.937500	-45.352924
21404.003906	-49.362087
21447.070312	-49.101952
21490.136719	-46.074116
21533.203125	-46.714317
21576.269531	-47.141117
21619.335938	-46.868698
21662.402344	-46.716515
21705.468750	-45.892727
21748.535156	-42.645874
21791.601562	-41.103909
21834.667969	-41.318249
21877.734375	-41.396519
21920.800781	-40.595219
21963.867188	-39.430450
22006.933594	-38.413616
