周波数 (Hz)	レベル (dB)
43.066406	-28.104549
86.132812	-25.627953
129.199219	-27.437895
172.265625	-33.127945
215.332031	-39.067204
258.398438	-44.273384
301.464844	-42.214779
344.531250	-40.787743
387.597656	-39.752453
430.664062	-40.599953
473.730469	-41.795956
516.796875	-44.313362
559.863281	-47.305855
602.929688	-52.038620
645.996094	-51.292767
689.062500	-52.709000
732.128906	-52.791740
775.195312	-50.868259
818.261719	-47.766956
861.328125	-46.831505
904.394531	-48.281719
947.460938	-51.655895
990.527344	-51.535675
1033.593750	-51.268204
1076.660156	-51.012756
1119.726562	-49.901852
1162.792969	-49.319168
1205.859375	-50.565086
1248.925781	-50.545177
1291.992188	-47.547470
1335.058594	-46.972778
1378.125000	-47.088112
1421.191406	-48.140938
1464.257812	-50.706142
1507.324219	-51.701641
1550.390625	-48.854519
1593.457031	-47.189270
1636.523438	-44.680634
1679.589844	-42.450348
1722.656250	-41.927444
1765.722656	-43.100494
1808.789062	-44.301823
1851.855469	-46.127666
1894.921875	-46.711140
1937.988281	-47.634602
1981.054688	-50.044746
2024.121094	-50.984848
2067.187500	-51.061394
2110.253906	-53.605412
2153.320312	-50.041420
2196.386719	-49.334274
2239.453125	-52.914028
2282.519531	-53.447479
2325.585938	-56.130459
2368.652344	-55.953094
2411.718750	-52.318851
2454.785156	-46.894867
2497.851562	-43.739315
2540.917969	-43.117294
2583.984375	-44.085251
2627.050781	-45.291740
2670.117188	-45.257851
2713.183594	-43.970436
2756.250000	-44.202805
2799.316406	-44.622421
2842.382812	-45.351696
2885.449219	-46.784401
2928.515625	-46.963612
2971.582031	-45.817783
3014.648438	-44.333424
3057.714844	-43.957405
3100.781250	-42.539768
3143.847656	-42.925816
3186.914062	-45.852905
3229.980469	-45.150723
3273.046875	-45.190521
3316.113281	-45.657513
3359.179688	-47.894382
3402.246094	-47.145168
3445.312500	-44.406788
3488.378906	-42.834682
3531.445312	-41.947453
3574.511719	-43.449509
3617.578125	-44.862976
3660.644531	-44.345055
3703.710938	-45.355537
3746.777344	-45.270519
3789.843750	-46.255966
3832.910156	-46.152958
3875.976562	-43.618931
3919.042969	-42.699875
3962.109375	-43.863979
4005.175781	-47.788334
4048.242188	-51.566044
4091.308594	-51.370949
4134.375000	-48.781654
4177.441406	-48.467583
4220.507812	-50.012638
4263.574219	-51.331406
4306.640625	-48.886505
4349.707031	-46.371044
4392.773438	-46.201565
4435.839844	-47.594013
4478.906250	-50.154995
4521.972656	-53.633846
4565.039062	-52.998688
4608.105469	-51.842422
4651.171875	-50.546974
4694.238281	-48.177811
4737.304688	-48.958118
4780.371094	-49.968296
4823.437500	-50.186295
4866.503906	-52.017223
4909.570312	-50.169453
4952.636719	-48.818165
4995.703125	-49.108311
5038.769531	-47.716240
5081.835938	-47.066765
5124.902344	-45.016254
5167.968750	-43.299976
5211.035156	-44.790405
5254.101562	-46.355339
5297.167969	-46.375286
5340.234375	-46.459129
5383.300781	-48.283062
5426.367188	-50.189972
5469.433594	-50.775864
5512.500000	-50.851158
5555.566406	-49.447598
5598.632812	-47.888916
5641.699219	-46.050388
5684.765625	-44.554176
5727.832031	-43.912720
5770.898438	-46.008785
5813.964844	-50.232071
5857.031250	-51.237137
5900.097656	-51.092381
5943.164062	-51.024670
5986.230469	-49.251060
6029.296875	-47.591801
6072.363281	-46.916214
6115.429688	-46.816082
6158.496094	-46.624462
6201.562500	-46.191204
6244.628906	-45.868301
6287.695312	-43.915905
6330.761719	-41.703529
6373.828125	-41.531548
6416.894531	-43.571468
6459.960938	-46.060364
6503.027344	-48.813362
6546.093750	-49.110840
6589.160156	-49.551853
6632.226562	-52.580585
6675.292969	-54.703583
6718.359375	-53.933678
6761.425781	-54.364784
6804.492188	-56.058292
6847.558594	-55.704750
6890.625000	-51.464741
6933.691406	-51.225311
6976.757812	-52.981499
7019.824219	-52.452885
7062.890625	-48.703262
7105.957031	-47.962925
7149.023438	-47.621655
7192.089844	-45.151520
7235.156250	-44.146744
7278.222656	-43.659164
7321.289062	-43.425148
7364.355469	-43.766178
7407.421875	-44.573013
7450.488281	-45.001129
7493.554688	-45.771717
7536.621094	-48.088799
7579.687500	-51.550465
7622.753906	-52.480541
7665.820312	-53.778515
7708.886719	-57.730568
7751.953125	-55.466019
7795.019531	-55.002563
7838.085938	-55.350918
7881.152344	-52.802307
7924.218750	-52.771263
7967.285156	-55.276833
8010.351562	-52.510628
8053.417969	-50.742805
8096.484375	-49.353092
8139.550781	-47.777534
8182.617188	-48.119045
8225.683594	-48.440048
8268.750000	-49.439480
8311.816406	-50.469795
8354.882812	-49.747631
8397.949219	-48.000725
8441.015625	-47.600136
8484.082031	-49.796558
8527.148438	-50.097382
8570.214844	-49.785629
8613.281250	-51.005970
8656.347656	-50.857277
8699.414062	-51.008446
8742.480469	-50.140320
8785.546875	-47.604782
8828.613281	-47.693878
8871.679688	-47.544231
8914.746094	-48.390709
8957.812500	-48.410492
9000.878906	-47.939732
9043.945312	-50.451984
9087.011719	-47.588608
9130.078125	-47.657017
9173.144531	-50.251301
9216.210938	-50.587448
9259.277344	-49.688644
9302.343750	-50.369762
9345.410156	-50.674965
9388.476562	-49.544880
9431.542969	-47.729752
9474.609375	-45.901379
9517.675781	-44.801987
9560.742188	-43.710625
9603.808594	-44.864693
9646.875000	-45.777519
9689.941406	-46.702652
9733.007812	-46.942783
9776.074219	-46.622078
9819.140625	-46.543606
9862.207031	-46.274517
9905.273438	-44.581306
9948.339844	-43.571621
9991.406250	-43.609402
10034.472656	-42.830624
10077.539062	-42.679993
10120.605469	-42.011532
10163.671875	-43.765598
10206.738281	-43.552471
10249.804688	-43.140224
10292.871094	-42.686432
10335.937500	-42.958351
10379.003906	-44.754509
10422.070312	-44.284187
10465.136719	-45.934231
10508.203125	-47.022049
10551.269531	-47.532856
10594.335938	-48.724228
10637.402344	-47.255352
10680.468750	-47.178440
10723.535156	-47.110920
10766.601562	-47.230099
10809.667969	-47.839325
10852.734375	-49.215717
10895.800781	-51.002567
10938.867188	-47.654720
10981.933594	-48.876175
11025.000000	-49.344448
11068.066406	-47.047611
11111.132812	-44.035179
11154.199219	-44.017960
11197.265625	-43.545914
11240.332031	-41.105213
11283.398438	-40.864784
11326.464844	-42.255657
11369.531250	-44.362083
11412.597656	-44.670261
11455.664062	-43.165653
11498.730469	-43.171654
11541.796875	-44.007793
11584.863281	-45.494774
11627.929688	-46.822395
11670.996094	-46.121250
11714.062500	-46.837425
11757.128906	-48.053654
11800.195312	-48.015152
11843.261719	-49.472965
11886.328125	-48.923855
11929.394531	-46.319069
11972.460938	-43.444736
12015.527344	-42.689854
12058.593750	-41.664581
12101.660156	-42.629791
12144.726562	-45.127178
12187.792969	-46.374878
12230.859375	-45.882446
12273.925781	-43.634323
12316.992188	-41.910389
12360.058594	-42.687275
12403.125000	-41.758320
12446.191406	-40.697781
12489.257812	-41.455101
12532.324219	-39.538143
12575.390625	-38.240993
12618.457031	-39.605743
12661.523438	-42.809715
12704.589844	-43.963234
12747.656250	-42.716644
12790.722656	-39.823128
12833.789062	-39.681610
12876.855469	-38.950340
12919.921875	-39.745785
12962.988281	-42.565544
13006.054688	-44.048946
13049.121094	-44.623211
13092.187500	-44.096451
13135.253906	-44.195484
13178.320312	-43.545635
13221.386719	-42.286339
13264.453125	-43.118366
13307.519531	-43.229908
13350.585938	-41.233356
13393.652344	-41.110451
13436.718750	-42.147213
13479.785156	-43.909794
13522.851562	-46.135216
13565.917969	-46.936676
13608.984375	-45.600643
13652.050781	-44.890450
13695.117188	-44.937592
13738.183594	-44.888542
13781.250000	-44.399467
13824.316406	-42.654179
13867.382812	-38.712376
13910.449219	-38.103706
13953.515625	-39.010857
13996.582031	-38.888893
14039.648438	-41.090485
14082.714844	-42.046703
14125.781250	-39.722733
14168.847656	-38.411633
14211.914062	-36.775784
14254.980469	-36.375912
14298.046875	-36.877743
14341.113281	-36.606323
14384.179688	-38.592896
14427.246094	-40.383663
14470.312500	-41.635784
14513.378906	-41.201153
14556.445312	-41.161304
14599.511719	-40.173592
14642.578125	-38.415119
14685.644531	-39.336365
14728.710938	-43.487148
14771.777344	-47.932541
14814.843750	-48.320400
14857.910156	-43.999126
14900.976562	-40.188686
14944.042969	-37.503792
14987.109375	-37.257385
15030.175781	-38.176468
15073.242188	-39.035374
15116.308594	-39.468292
15159.375000	-39.303490
15202.441406	-38.607731
15245.507812	-40.421356
15288.574219	-43.502110
15331.640625	-42.948997
15374.707031	-40.795662
15417.773438	-40.909161
15460.839844	-41.521259
15503.906250	-39.897186
15546.972656	-37.276009
15590.039062	-35.946751
15633.105469	-37.299511
15676.171875	-40.199425
15719.238281	-40.016895
15762.304688	-41.200542
15805.371094	-43.339138
15848.437500	-40.744274
15891.503906	-40.360352
15934.570312	-40.025547
15977.636719	-38.725075
16020.703125	-37.269459
16063.769531	-35.498955
16106.835938	-34.411495
16149.902344	-34.430546
16192.968750	-34.327015
16236.035156	-35.851974
16279.101562	-34.384651
16322.167969	-33.276615
16365.234375	-34.639595
16408.300781	-37.284103
16451.367188	-37.876347
16494.433594	-37.430458
16537.500000	-36.987904
16580.566406	-36.463295
16623.632812	-37.952858
16666.699219	-40.696529
16709.765625	-45.617798
16752.832031	-44.857567
16795.898438	-40.147652
16838.964844	-39.397228
16882.031250	-41.724850
16925.097656	-42.962147
16968.164062	-41.892353
17011.230469	-40.442593
17054.296875	-39.831974
17097.363281	-36.554806
17140.429688	-37.175529
17183.496094	-39.738831
17226.562500	-40.834274
17269.628906	-44.944275
17312.695312	-46.569618
17355.761719	-45.176071
17398.828125	-42.814999
17441.894531	-41.004425
17484.960938	-38.798168
17528.027344	-38.961914
17571.093750	-40.373344
17614.160156	-41.382339
17657.226562	-40.128143
17700.292969	-36.960869
17743.359375	-36.288898
17786.425781	-36.437164
17829.492188	-39.161587
17872.558594	-42.033531
17915.625000	-41.650185
17958.691406	-41.702374
18001.757812	-42.152008
18044.824219	-39.712914
18087.890625	-37.682388
18130.957031	-35.258965
18174.023438	-34.067196
18217.089844	-35.012745
18260.156250	-37.708908
18303.222656	-39.380600
18346.289062	-39.694195
18389.355469	-39.740871
18432.421875	-38.627171
18475.488281	-34.955967
18518.554688	-33.511990
18561.621094	-34.367157
18604.687500	-37.275303
18647.753906	-34.990555
18690.820312	-32.823841
18733.886719	-32.536644
18776.953125	-33.641941
18820.019531	-35.106731
18863.085938	-35.546528
18906.152344	-35.656891
18949.218750	-36.907410
18992.285156	-37.541813
19035.351562	-37.574780
19078.417969	-38.071419
19121.484375	-39.307262
19164.550781	-39.490387
19207.617188	-38.905903
19250.683594	-37.882900
19293.750000	-38.616848
19336.816406	-41.137058
19379.882812	-42.822002
19422.949219	-41.779285
19466.015625	-40.276516
19509.082031	-39.660164
19552.148438	-38.603706
19595.214844	-36.768570
19638.281250	-35.946980
19681.347656	-37.624943
19724.414062	-42.378979
19767.480469	-45.212559
19810.546875	-40.893482
19853.613281	-39.287270
19896.679688	-38.047321
19939.746094	-35.714092
19982.812500	-34.521656
20025.878906	-35.195633
20068.945312	-35.293167
20112.011719	-36.116306
20155.078125	-38.444519
20198.144531	-40.056587
20241.210938	-40.129044
20284.277344	-41.893734
20327.343750	-44.013580
20370.410156	-43.574249
20413.476562	-42.024826
20456.542969	-41.993961
20499.609375	-43.090015
20542.675781	-42.414204
20585.742188	-40.242012
20628.808594	-40.545040
20671.875000	-42.678860
20714.941406	-45.274841
20758.007812	-45.906296
20801.074219	-45.455921
20844.140625	-45.629436
20887.207031	-45.229195
20930.273438	-43.458050
20973.339844	-42.765553
21016.406250	-43.597691
21059.472656	-45.921101
21102.539062	-45.923618
21145.605469	-43.951160
21188.671875	-43.599678
21231.738281	-43.322571
21274.804688	-43.475098
21317.871094	-44.377811
21360.937500	-46.472546
21404.003906	-47.668365
21447.070312	-48.651779
21490.136719	-51.492031
21533.203125	-50.319366
21576.269531	-47.752548
21619.335938	-47.949551
21662.402344	-50.360390
21705.468750	-51.970230
21748.535156	-53.053036
21791.601562	-52.730118
21834.667969	-51.699802
21877.734375	-51.650837
21920.800781	-49.752361
21963.867188	-46.826958
22006.933594	-46.493610
