周波数 (Hz)	レベル (dB)
43.066406	-28.249296
86.132812	-24.726070
129.199219	-26.177549
172.265625	-32.172165
215.332031	-37.856594
258.398438	-43.330856
301.464844	-44.170876
344.531250	-40.989391
387.597656	-39.467979
430.664062	-38.296211
473.730469	-39.837055
516.796875	-42.604691
559.863281	-44.270847
602.929688	-44.958942
645.996094	-45.999687
689.062500	-47.338337
732.128906	-49.327702
775.195312	-49.919033
818.261719	-44.868542
861.328125	-40.351254
904.394531	-38.391705
947.460938	-39.887882
990.527344	-41.697693
1033.593750	-42.879196
1076.660156	-44.547417
1119.726562	-46.292000
1162.792969	-49.325813
1205.859375	-46.535938
1248.925781	-44.567413
1291.992188	-42.282982
1335.058594	-40.788422
1378.125000	-40.791409
1421.191406	-41.632759
1464.257812	-43.423698
1507.324219	-46.140518
1550.390625	-47.083298
1593.457031	-43.531281
1636.523438	-41.430328
1679.589844	-43.536091
1722.656250	-49.899117
1765.722656	-47.181934
1808.789062	-45.506603
1851.855469	-46.722961
1894.921875	-46.520134
1937.988281	-44.858475
1981.054688	-43.655476
2024.121094	-44.698967
2067.187500	-46.560673
2110.253906	-47.585907
2153.320312	-47.204250
2196.386719	-46.964043
2239.453125	-47.762245
2282.519531	-48.877304
2325.585938	-48.566257
2368.652344	-47.025002
2411.718750	-45.467300
2454.785156	-44.887169
2497.851562	-45.215694
2540.917969	-43.976315
2583.984375	-43.696522
2627.050781	-45.435020
2670.117188	-46.647396
2713.183594	-44.203880
2756.250000	-42.860332
2799.316406	-43.577549
2842.382812	-45.546703
2885.449219	-48.177513
2928.515625	-46.857883
2971.582031	-45.706661
3014.648438	-45.496216
3057.714844	-45.559330
3100.781250	-47.728870
3143.847656	-48.793064
3186.914062	-48.822891
3229.980469	-46.050091
3273.046875	-42.781223
3316.113281	-42.044498
3359.179688	-42.462513
3402.246094	-42.999851
3445.312500	-43.730537
3488.378906	-46.745663
3531.445312	-52.042828
3574.511719	-51.301510
3617.578125	-50.781563
3660.644531	-50.902466
3703.710938	-51.425034
3746.777344	-51.349453
3789.843750	-50.035648
3832.910156	-48.544186
3875.976562	-48.887783
3919.042969	-49.858982
3962.109375	-49.666420
4005.175781	-47.778690
4048.242188	-47.849407
4091.308594	-48.848263
4134.375000	-48.585293
4177.441406	-48.735260
4220.507812	-49.638607
4263.574219	-48.574940
4306.640625	-47.697971
4349.707031	-47.796482
4392.773438	-48.878796
4435.839844	-46.769642
4478.906250	-43.952641
4521.972656	-43.324596
4565.039062	-44.962788
4608.105469	-48.137810
4651.171875	-49.646091
4694.238281	-50.406986
4737.304688	-47.985455
4780.371094	-46.410294
4823.437500	-46.890244
4866.503906	-44.852917
4909.570312	-44.315258
4952.636719	-45.327671
4995.703125	-45.203987
5038.769531	-45.004486
5081.835938	-46.017910
5124.902344	-48.619179
5167.968750	-52.064709
5211.035156	-53.989876
5254.101562	-53.852402
5297.167969	-54.796589
5340.234375	-57.893803
5383.300781	-55.221966
5426.367188	-51.529953
5469.433594	-51.254543
5512.500000	-50.194389
5555.566406	-48.357330
5598.632812	-49.345882
5641.699219	-54.297432
5684.765625	-49.884468
5727.832031	-44.645798
5770.898438	-43.139423
5813.964844	-44.282307
5857.031250	-48.336845
5900.097656	-49.713089
5943.164062	-48.163273
5986.230469	-49.372730
6029.296875	-51.629372
6072.363281	-50.213406
6115.429688	-46.524582
6158.496094	-43.609005
6201.562500	-42.130142
6244.628906	-42.845982
6287.695312	-45.318253
6330.761719	-47.099285
6373.828125	-48.629898
6416.894531	-47.303123
6459.960938	-46.011703
6503.027344	-46.559841
6546.093750	-46.949928
6589.160156	-46.193218
6632.226562	-47.408615
6675.292969	-49.351727
6718.359375	-50.648350
6761.425781	-49.002762
6804.492188	-46.396214
6847.558594	-44.898922
6890.625000	-44.692436
6933.691406	-44.804077
6976.757812	-46.231056
7019.824219	-50.695179
7062.890625	-53.564354
7105.957031	-50.340637
7149.023438	-48.837086
7192.089844	-48.849903
7235.156250	-50.894531
7278.222656	-50.003288
7321.289062	-48.087711
7364.355469	-48.268524
7407.421875	-50.352169
7450.488281	-46.243065
7493.554688	-43.481102
7536.621094	-43.608997
7579.687500	-44.494232
7622.753906	-45.588490
7665.820312	-47.829636
7708.886719	-50.211517
7751.953125	-49.566292
7795.019531	-49.963367
7838.085938	-48.682602
7881.152344	-46.717560
7924.218750	-44.478382
7967.285156	-42.615490
8010.351562	-42.185253
8053.417969	-42.522270
8096.484375	-44.304623
8139.550781	-48.578976
8182.617188	-49.277344
8225.683594	-46.547382
8268.750000	-46.691231
8311.816406	-48.447124
8354.882812	-48.070679
8397.949219	-45.858917
8441.015625	-45.358936
8484.082031	-46.243767
8527.148438	-49.872654
8570.214844	-51.827850
8613.281250	-45.766933
8656.347656	-42.059700
8699.414062	-40.762669
8742.480469	-41.810345
8785.546875	-45.196087
8828.613281	-50.093601
8871.679688	-48.150848
8914.746094	-46.326977
8957.812500	-46.870342
9000.878906	-48.830273
9043.945312	-48.651325
9087.011719	-45.014881
9130.078125	-42.964020
9173.144531	-42.349220
9216.210938	-42.591290
9259.277344	-44.920410
9302.343750	-48.022991
9345.410156	-47.316357
9388.476562	-45.987396
9431.542969	-45.762630
9474.609375	-48.200100
9517.675781	-45.644138
9560.742188	-42.290989
9603.808594	-41.262241
9646.875000	-42.130703
9689.941406	-44.463001
9733.007812	-47.063717
9776.074219	-47.586437
9819.140625	-47.176159
9862.207031	-46.851257
9905.273438	-46.733891
9948.339844	-46.731033
9991.406250	-44.340027
10034.472656	-44.496330
10077.539062	-48.619732
10120.605469	-49.679085
10163.671875	-46.803066
10206.738281	-44.819721
10249.804688	-44.136341
10292.871094	-43.554558
10335.937500	-43.044727
10379.003906	-42.619514
10422.070312	-42.976700
10465.136719	-43.805759
10508.203125	-45.516758
10551.269531	-50.330723
10594.335938	-52.148594
10637.402344	-49.119892
10680.468750	-45.992569
10723.535156	-45.342056
10766.601562	-45.351341
10809.667969	-44.675091
10852.734375	-44.744423
10895.800781	-43.041767
10938.867188	-41.178768
10981.933594	-40.478081
11025.000000	-41.184082
11068.066406	-43.095615
11111.132812	-43.914516
11154.199219	-43.581947
11197.265625	-42.287868
11240.332031	-42.526764
11283.398438	-45.182724
11326.464844	-44.662037
11369.531250	-42.443710
11412.597656	-41.951675
11455.664062	-43.404186
11498.730469	-46.080082
11541.796875	-44.131931
11584.863281	-41.813278
11627.929688	-41.010750
11670.996094	-41.885822
11714.062500	-44.828339
11757.128906	-48.281029
11800.195312	-45.030956
11843.261719	-42.344616
11886.328125	-42.116272
11929.394531	-42.389336
11972.460938	-43.252354
12015.527344	-45.965702
12058.593750	-50.319202
12101.660156	-47.249691
12144.726562	-44.119194
12187.792969	-43.990639
12230.859375	-45.720356
12273.925781	-44.335773
12316.992188	-42.206379
12360.058594	-40.808723
12403.125000	-39.619198
12446.191406	-39.420040
12489.257812	-39.636204
12532.324219	-40.916103
12575.390625	-42.438347
12618.457031	-42.796303
12661.523438	-41.930099
12704.589844	-41.048447
12747.656250	-40.035145
12790.722656	-38.994255
12833.789062	-38.621288
12876.855469	-38.535629
12919.921875	-39.552094
12962.988281	-41.372383
13006.054688	-41.713543
13049.121094	-42.238026
13092.187500	-44.594158
13135.253906	-45.331909
13178.320312	-40.938854
13221.386719	-40.615242
13264.453125	-42.689308
13307.519531	-41.310406
13350.585938	-39.867447
13393.652344	-41.368263
13436.718750	-43.706871
13479.785156	-43.264908
13522.851562	-42.405567
13565.917969	-41.394508
13608.984375	-41.735577
13652.050781	-43.207298
13695.117188	-42.165424
13738.183594	-40.999008
13781.250000	-39.480347
13824.316406	-38.966656
13867.382812	-38.533283
13910.449219	-38.409603
13953.515625	-37.612858
13996.582031	-36.841908
14039.648438	-37.184128
14082.714844	-36.327019
14125.781250	-34.719894
14168.847656	-35.038231
14211.914062	-35.254818
14254.980469	-36.339558
14298.046875	-37.621468
14341.113281	-38.854397
14384.179688	-40.670357
14427.246094	-41.638046
14470.312500	-40.143429
14513.378906	-39.220043
14556.445312	-39.148090
14599.511719	-40.036438
14642.578125	-41.886070
14685.644531	-42.964844
14728.710938	-42.612663
14771.777344	-42.132111
14814.843750	-41.921997
14857.910156	-41.250919
14900.976562	-40.562481
14944.042969	-39.068130
14987.109375	-37.232414
15030.175781	-36.446220
15073.242188	-37.222065
15116.308594	-38.257832
15159.375000	-40.580894
15202.441406	-43.525639
15245.507812	-43.109074
15288.574219	-40.943272
15331.640625	-39.193108
15374.707031	-39.037209
15417.773438	-38.093967
15460.839844	-37.069401
15503.906250	-36.248863
15546.972656	-36.588028
15590.039062	-39.660946
15633.105469	-42.042217
15676.171875	-40.567192
15719.238281	-38.924721
15762.304688	-38.043087
15805.371094	-36.781746
15848.437500	-36.461422
15891.503906	-36.842072
15934.570312	-37.166706
15977.636719	-37.503254
16020.703125	-38.578484
16063.769531	-39.167763
16106.835938	-39.771553
16149.902344	-38.123096
16192.968750	-35.356503
16236.035156	-34.998783
16279.101562	-36.243237
16322.167969	-36.359306
16365.234375	-36.340054
16408.300781	-37.126793
16451.367188	-38.485466
16494.433594	-39.262417
16537.500000	-38.676426
16580.566406	-38.179920
16623.632812	-39.549152
16666.699219	-39.996159
16709.765625	-38.846436
16752.832031	-37.191841
16795.898438	-35.514660
16838.964844	-35.075817
16882.031250	-35.708626
16925.097656	-38.068951
16968.164062	-37.847763
17011.230469	-36.908230
17054.296875	-38.232803
17097.363281	-39.081532
17140.429688	-37.594147
17183.496094	-36.837418
17226.562500	-37.413929
17269.628906	-37.414585
17312.695312	-34.808502
17355.761719	-33.098846
17398.828125	-33.775352
17441.894531	-35.985622
17484.960938	-38.337955
17528.027344	-39.468990
17571.093750	-37.159313
17614.160156	-34.992592
17657.226562	-34.000187
17700.292969	-33.671040
17743.359375	-34.403637
17786.425781	-34.941235
17829.492188	-35.225456
17872.558594	-35.512047
17915.625000	-35.360268
17958.691406	-35.435135
18001.757812	-35.716583
18044.824219	-36.001102
18087.890625	-37.368713
18130.957031	-38.476547
18174.023438	-38.528687
18217.089844	-37.762573
18260.156250	-35.921722
18303.222656	-35.293179
18346.289062	-35.588184
18389.355469	-36.638222
18432.421875	-38.070919
18475.488281	-39.511646
18518.554688	-37.248985
18561.621094	-34.345139
18604.687500	-33.556549
18647.753906	-33.911503
18690.820312	-34.861042
18733.886719	-36.412273
18776.953125	-37.396450
18820.019531	-38.758739
18863.085938	-37.836102
18906.152344	-35.861935
18949.218750	-35.649597
18992.285156	-36.527798
19035.351562	-37.647091
19078.417969	-37.172726
19121.484375	-37.358727
19164.550781	-38.939766
19207.617188	-40.780422
19250.683594	-42.164886
19293.750000	-42.133533
19336.816406	-40.100037
19379.882812	-38.678970
19422.949219	-38.424706
19466.015625	-37.613766
19509.082031	-37.321861
19552.148438	-39.146053
19595.214844	-40.373878
19638.281250	-39.811394
19681.347656	-39.783009
19724.414062	-39.760628
19767.480469	-40.399677
19810.546875	-41.527538
19853.613281	-43.057457
19896.679688	-44.553909
19939.746094	-46.110115
19982.812500	-44.915497
20025.878906	-44.600555
20068.945312	-43.871662
20112.011719	-42.683460
20155.078125	-42.822838
20198.144531	-43.361271
20241.210938	-43.786888
20284.277344	-45.223579
20327.343750	-46.871639
20370.410156	-45.462418
20413.476562	-46.012066
20456.542969	-46.452076
20499.609375	-45.263622
20542.675781	-44.410458
20585.742188	-43.857059
20628.808594	-43.387913
20671.875000	-43.690163
20714.941406	-45.453224
20758.007812	-47.469154
20801.074219	-47.437351
20844.140625	-45.682789
20887.207031	-43.670296
20930.273438	-43.327934
20973.339844	-45.187920
21016.406250	-46.564178
21059.472656	-44.929905
21102.539062	-43.507832
21145.605469	-43.345921
21188.671875	-43.121540
21231.738281	-43.278755
21274.804688	-43.943474
21317.871094	-44.487247
21360.937500	-45.094246
21404.003906	-46.052357
21447.070312	-45.414909
21490.136719	-42.769306
21533.203125	-41.698963
21576.269531	-42.075932
21619.335938	-42.697121
21662.402344	-44.733112
21705.468750	-46.789860
21748.535156	-45.527153
21791.601562	-44.540188
21834.667969	-45.267498
21877.734375	-46.612007
21920.800781	-48.210941
21963.867188	-49.310532
22006.933594	-51.468273
