周波数 (Hz)	レベル (dB)
43.066406	-27.068735
86.132812	-22.696012
129.199219	-24.120632
172.265625	-31.784397
215.332031	-39.086674
258.398438	-44.323380
301.464844	-42.325893
344.531250	-38.731716
387.597656	-39.101940
430.664062	-38.814941
473.730469	-40.147068
516.796875	-43.232517
559.863281	-44.341175
602.929688	-46.556965
645.996094	-44.728268
689.062500	-42.844185
732.128906	-43.966789
775.195312	-44.273964
818.261719	-41.999870
861.328125	-40.018974
904.394531	-38.204086
947.460938	-38.253658
990.527344	-40.522045
1033.593750	-41.933353
1076.660156	-44.080143
1119.726562	-44.425869
1162.792969	-44.909966
1205.859375	-43.337898
1248.925781	-41.839981
1291.992188	-41.896576
1335.058594	-42.485748
1378.125000	-43.452068
1421.191406	-45.346344
1464.257812	-47.243328
1507.324219	-47.067116
1550.390625	-46.140129
1593.457031	-44.928513
1636.523438	-43.832329
1679.589844	-44.791508
1722.656250	-47.370342
1765.722656	-50.603745
1808.789062	-50.132069
1851.855469	-48.822193
1894.921875	-47.518486
1937.988281	-47.198925
1981.054688	-47.480484
2024.121094	-48.031063
2067.187500	-50.759464
2110.253906	-51.988758
2153.320312	-51.479252
2196.386719	-51.018707
2239.453125	-50.052742
2282.519531	-49.306580
2325.585938	-49.730110
2368.652344	-53.025181
2411.718750	-50.918751
2454.785156	-46.509010
2497.851562	-45.670097
2540.917969	-46.370251
2583.984375	-46.145836
2627.050781	-44.956490
2670.117188	-44.621929
2713.183594	-45.780811
2756.250000	-45.590565
2799.316406	-45.085140
2842.382812	-46.280399
2885.449219	-48.621372
2928.515625	-50.134861
2971.582031	-49.315918
3014.648438	-48.936905
3057.714844	-48.667000
3100.781250	-48.920670
3143.847656	-48.978741
3186.914062	-48.049469
3229.980469	-45.124317
3273.046875	-43.674480
3316.113281	-44.066776
3359.179688	-44.586288
3402.246094	-45.002064
3445.312500	-45.612061
3488.378906	-46.452194
3531.445312	-48.123108
3574.511719	-48.189247
3617.578125	-46.767723
3660.644531	-46.744686
3703.710938	-46.424828
3746.777344	-46.131187
3789.843750	-47.832867
3832.910156	-50.704830
3875.976562	-52.929314
3919.042969	-53.151218
3962.109375	-52.375412
4005.175781	-48.651272
4048.242188	-45.726654
4091.308594	-44.218952
4134.375000	-42.763111
4177.441406	-42.204140
4220.507812	-42.556511
4263.574219	-44.625458
4306.640625	-47.306431
4349.707031	-47.838539
4392.773438	-46.860096
4435.839844	-46.345654
4478.906250	-45.452705
4521.972656	-44.522320
4565.039062	-44.434528
4608.105469	-44.889515
4651.171875	-45.530388
4694.238281	-47.050617
4737.304688	-47.393246
4780.371094	-46.512238
4823.437500	-45.159092
4866.503906	-45.646385
4909.570312	-48.690834
4952.636719	-50.369732
4995.703125	-47.441963
5038.769531	-46.202347
5081.835938	-45.975559
5124.902344	-45.653725
5167.968750	-44.884747
5211.035156	-45.238441
5254.101562	-47.457970
5297.167969	-50.829853
5340.234375	-50.272984
5383.300781	-49.199707
5426.367188	-49.510517
5469.433594	-50.630310
5512.500000	-49.096275
5555.566406	-47.110077
5598.632812	-47.084106
5641.699219	-48.551987
5684.765625	-50.144367
5727.832031	-49.481709
5770.898438	-47.561249
5813.964844	-46.167393
5857.031250	-46.580254
5900.097656	-46.941978
5943.164062	-46.271500
5986.230469	-46.450649
6029.296875	-47.474506
6072.363281	-48.258877
6115.429688	-49.397087
6158.496094	-50.779999
6201.562500	-51.473602
6244.628906	-50.821301
6287.695312	-48.468128
6330.761719	-48.209999
6373.828125	-50.189075
6416.894531	-48.240982
6459.960938	-45.942379
6503.027344	-44.406597
6546.093750	-43.789089
6589.160156	-44.425323
6632.226562	-45.958935
6675.292969	-48.090485
6718.359375	-50.811615
6761.425781	-52.345001
6804.492188	-52.440357
6847.558594	-52.560383
6890.625000	-50.806793
6933.691406	-49.360344
6976.757812	-48.478302
7019.824219	-47.589821
7062.890625	-49.040863
7105.957031	-51.154186
7149.023438	-50.575588
7192.089844	-49.194386
7235.156250	-49.011707
7278.222656	-49.490631
7321.289062	-50.136589
7364.355469	-49.736614
7407.421875	-49.537624
7450.488281	-50.959248
7493.554688	-54.413174
7536.621094	-53.633251
7579.687500	-51.197872
7622.753906	-49.920631
7665.820312	-50.044559
7708.886719	-49.623119
7751.953125	-48.343235
7795.019531	-47.597939
7838.085938	-47.395752
7881.152344	-47.302685
7924.218750	-47.262440
7967.285156	-47.730331
8010.351562	-48.393093
8053.417969	-48.363972
8096.484375	-47.719162
8139.550781	-47.693882
8182.617188	-47.474621
8225.683594	-46.963989
8268.750000	-46.502716
8311.816406	-45.836391
8354.882812	-45.604980
8397.949219	-45.283165
8441.015625	-44.712475
8484.082031	-44.255054
8527.148438	-44.298309
8570.214844	-45.039303
8613.281250	-45.574181
8656.347656	-46.478264
8699.414062	-47.195625
8742.480469	-48.072330
8785.546875	-49.383015
8828.613281	-51.330364
8871.679688	-51.756462
8914.746094	-51.291569
8957.812500	-48.042374
9000.878906	-44.601753
9043.945312	-42.610203
9087.011719	-42.664791
9130.078125	-44.024128
9173.144531	-45.383842
9216.210938	-46.162292
9259.277344	-46.821598
9302.343750	-48.009880
9345.410156	-48.952370
9388.476562	-49.869732
9431.542969	-48.776279
9474.609375	-48.331547
9517.675781	-47.707653
9560.742188	-45.988106
9603.808594	-45.943481
9646.875000	-46.778687
9689.941406	-47.281460
9733.007812	-45.870995
9776.074219	-43.821770
9819.140625	-42.703129
9862.207031	-43.356812
9905.273438	-44.715305
9948.339844	-45.222725
9991.406250	-46.092838
10034.472656	-46.298779
10077.539062	-45.588593
10120.605469	-44.604591
10163.671875	-41.927147
10206.738281	-40.592453
10249.804688	-42.300549
10292.871094	-45.750557
10335.937500	-47.774673
10379.003906	-47.892490
10422.070312	-45.326824
10465.136719	-43.128159
10508.203125	-42.995102
10551.269531	-44.215252
10594.335938	-44.817387
10637.402344	-43.846195
10680.468750	-41.380333
10723.535156	-40.904213
10766.601562	-42.578133
10809.667969	-45.141750
10852.734375	-48.200909
10895.800781	-47.266579
10938.867188	-46.572052
10981.933594	-46.704044
11025.000000	-47.721207
11068.066406	-49.605106
11111.132812	-50.716175
11154.199219	-50.287708
11197.265625	-49.244751
11240.332031	-46.820797
11283.398438	-44.852753
11326.464844	-44.685143
11369.531250	-45.943108
11412.597656	-48.094379
11455.664062	-48.227173
11498.730469	-46.462738
11541.796875	-47.019680
11584.863281	-49.457600
11627.929688	-48.634953
11670.996094	-46.247036
11714.062500	-44.380970
11757.128906	-45.155746
11800.195312	-45.380001
11843.261719	-41.873333
11886.328125	-39.959343
11929.394531	-39.513905
11972.460938	-38.790325
12015.527344	-38.798286
12058.593750	-39.963955
12101.660156	-41.474014
12144.726562	-41.992596
12187.792969	-42.311836
12230.859375	-42.169182
12273.925781	-41.531906
12316.992188	-43.170570
12360.058594	-46.515285
12403.125000	-48.122089
12446.191406	-46.449451
12489.257812	-45.517460
12532.324219	-46.878101
12575.390625	-46.087818
12618.457031	-43.754353
12661.523438	-43.738338
12704.589844	-44.643810
12747.656250	-44.316807
12790.722656	-42.533978
12833.789062	-40.573536
12876.855469	-39.383003
12919.921875	-38.746769
12962.988281	-37.866436
13006.054688	-37.297909
13049.121094	-37.821217
13092.187500	-39.305279
13135.253906	-40.291698
13178.320312	-40.983715
13221.386719	-42.152699
13264.453125	-42.414295
13307.519531	-43.305992
13350.585938	-44.883835
13393.652344	-44.800152
13436.718750	-44.514915
13479.785156	-44.685139
13522.851562	-44.253597
13565.917969	-44.077263
13608.984375	-42.873577
13652.050781	-41.853153
13695.117188	-41.987457
13738.183594	-41.838440
13781.250000	-38.791306
13824.316406	-36.246624
13867.382812	-35.379898
13910.449219	-35.210655
13953.515625	-36.197300
13996.582031	-39.009365
14039.648438	-42.054775
14082.714844	-41.000336
14125.781250	-40.014061
14168.847656	-42.201294
14211.914062	-44.297527
14254.980469	-43.671028
14298.046875	-43.637756
14341.113281	-43.908741
14384.179688	-42.720554
14427.246094	-40.614063
14470.312500	-38.701584
14513.378906	-38.012966
14556.445312	-38.756737
14599.511719	-40.305450
14642.578125	-41.862640
14685.644531	-41.751980
14728.710938	-41.786045
14771.777344	-44.869556
14814.843750	-47.952370
14857.910156	-44.451538
14900.976562	-43.728161
14944.042969	-44.269844
14987.109375	-42.012650
15030.175781	-40.094948
15073.242188	-39.119339
15116.308594	-39.288593
15159.375000	-41.799816
15202.441406	-45.574657
15245.507812	-45.287769
15288.574219	-43.140076
15331.640625	-42.091129
15374.707031	-41.045422
15417.773438	-41.428291
15460.839844	-40.983887
15503.906250	-40.346745
15546.972656	-39.513054
15590.039062	-37.664616
15633.105469	-36.660007
15676.171875	-36.881104
15719.238281	-35.511848
15762.304688	-34.956959
15805.371094	-37.245811
15848.437500	-42.629436
15891.503906	-40.722206
15934.570312	-38.812801
15977.636719	-37.812141
16020.703125	-35.814255
16063.769531	-35.636395
16106.835938	-38.222935
16149.902344	-41.552502
16192.968750	-40.103546
16236.035156	-38.259476
16279.101562	-38.357025
16322.167969	-39.159874
16365.234375	-40.107803
16408.300781	-39.641266
16451.367188	-37.025661
16494.433594	-35.025959
16537.500000	-34.630272
16580.566406	-35.735336
16623.632812	-37.623657
16666.699219	-39.350521
16709.765625	-38.551140
16752.832031	-37.620228
16795.898438	-37.165829
16838.964844	-37.354389
16882.031250	-39.358696
16925.097656	-43.153591
16968.164062	-43.582668
17011.230469	-40.023972
17054.296875	-37.813942
17097.363281	-37.014828
17140.429688	-36.719826
17183.496094	-36.004887
17226.562500	-34.343235
17269.628906	-33.381573
17312.695312	-33.827862
17355.761719	-34.907784
17398.828125	-35.558510
17441.894531	-35.787552
17484.960938	-36.359123
17528.027344	-38.459938
17571.093750	-40.787514
17614.160156	-38.071198
17657.226562	-36.613571
17700.292969	-36.791378
17743.359375	-37.337280
17786.425781	-38.442883
17829.492188	-34.983028
17872.558594	-32.379456
17915.625000	-32.862396
17958.691406	-35.896408
18001.757812	-39.695873
18044.824219	-38.737083
18087.890625	-36.962677
18130.957031	-38.118221
18174.023438	-41.047218
18217.089844	-42.099575
18260.156250	-40.263165
18303.222656	-37.876156
18346.289062	-36.756115
18389.355469	-37.039391
18432.421875	-37.097591
18475.488281	-36.134628
18518.554688	-36.033947
18561.621094	-38.135849
18604.687500	-40.744057
18647.753906	-40.308075
18690.820312	-39.170238
18733.886719	-37.593319
18776.953125	-35.756855
18820.019531	-33.994602
18863.085938	-33.529114
18906.152344	-34.421322
18949.218750	-35.811142
18992.285156	-37.328911
19035.351562	-39.339180
19078.417969	-41.157818
19121.484375	-40.114716
19164.550781	-39.279846
19207.617188	-39.961906
19250.683594	-39.325813
19293.750000	-36.745831
19336.816406	-35.652931
19379.882812	-35.709171
19422.949219	-36.556469
19466.015625	-38.010529
19509.082031	-38.894516
19552.148438	-38.642548
19595.214844	-38.210281
19638.281250	-39.641327
19681.347656	-42.348217
19724.414062	-42.547890
19767.480469	-38.718395
19810.546875	-37.713921
19853.613281	-39.949585
19896.679688	-41.039814
19939.746094	-40.717224
19982.812500	-40.852818
20025.878906	-40.734112
20068.945312	-40.627834
20112.011719	-39.985302
20155.078125	-39.627201
20198.144531	-40.382233
20241.210938	-42.456863
20284.277344	-45.179081
20327.343750	-47.032349
20370.410156	-46.949501
20413.476562	-44.222740
20456.542969	-41.375942
20499.609375	-40.759098
20542.675781	-42.028156
20585.742188	-44.282894
20628.808594	-45.510956
20671.875000	-44.249748
20714.941406	-42.888100
20758.007812	-42.856255
20801.074219	-44.018955
20844.140625	-43.860703
20887.207031	-42.972569
20930.273438	-43.506065
20973.339844	-45.256344
21016.406250	-46.197681
21059.472656	-45.452972
21102.539062	-44.247181
21145.605469	-44.936165
21188.671875	-47.204159
21231.738281	-48.599113
21274.804688	-48.963890
21317.871094	-48.053146
21360.937500	-47.939327
21404.003906	-48.256733
21447.070312	-49.197590
21490.136719	-50.255417
21533.203125	-47.444340
21576.269531	-47.747452
21619.335938	-48.223682
21662.402344	-45.546391
21705.468750	-44.648670
21748.535156	-45.683830
21791.601562	-46.789967
21834.667969	-45.582523
21877.734375	-44.138706
21920.800781	-44.847710
21963.867188	-47.080795
22006.933594	-48.770214
