周波数 (Hz)	レベル (dB)
43.066406	-26.902359
86.132812	-21.043285
129.199219	-23.139082
172.265625	-32.417755
215.332031	-39.346279
258.398438	-45.380901
301.464844	-42.061565
344.531250	-38.448677
387.597656	-38.882622
430.664062	-38.837685
473.730469	-41.278538
516.796875	-44.385933
559.863281	-45.196259
602.929688	-47.198406
645.996094	-44.927097
689.062500	-43.783875
732.128906	-44.940174
775.195312	-43.245098
818.261719	-41.007721
861.328125	-39.906319
904.394531	-39.004005
947.460938	-40.087399
990.527344	-40.211426
1033.593750	-39.069851
1076.660156	-40.267326
1119.726562	-40.538662
1162.792969	-41.833817
1205.859375	-42.046207
1248.925781	-41.755913
1291.992188	-42.753704
1335.058594	-43.234806
1378.125000	-44.793758
1421.191406	-46.881424
1464.257812	-47.075706
1507.324219	-47.287975
1550.390625	-46.100197
1593.457031	-43.650734
1636.523438	-42.027489
1679.589844	-41.501450
1722.656250	-43.146366
1765.722656	-44.667397
1808.789062	-44.527390
1851.855469	-43.326420
1894.921875	-42.697754
1937.988281	-43.309265
1981.054688	-44.978016
2024.121094	-46.444668
2067.187500	-46.360043
2110.253906	-46.483868
2153.320312	-46.209610
2196.386719	-47.049656
2239.453125	-49.146790
2282.519531	-49.730766
2325.585938	-46.184418
2368.652344	-42.866970
2411.718750	-41.875580
2454.785156	-42.598854
2497.851562	-42.597752
2540.917969	-43.112724
2583.984375	-43.507931
2627.050781	-42.929359
2670.117188	-43.044865
2713.183594	-44.005367
2756.250000	-45.024578
2799.316406	-45.314137
2842.382812	-46.733143
2885.449219	-49.802299
2928.515625	-52.318638
2971.582031	-51.771809
3014.648438	-51.694393
3057.714844	-51.202545
3100.781250	-49.742031
3143.847656	-48.448093
3186.914062	-47.153542
3229.980469	-45.789078
3273.046875	-44.533756
3316.113281	-42.750668
3359.179688	-41.905807
3402.246094	-42.249546
3445.312500	-42.720261
3488.378906	-42.681633
3531.445312	-42.975868
3574.511719	-44.142384
3617.578125	-45.107277
3660.644531	-44.675602
3703.710938	-45.023243
3746.777344	-45.617924
3789.843750	-46.390011
3832.910156	-45.924145
3875.976562	-45.116444
3919.042969	-45.269104
3962.109375	-46.655228
4005.175781	-49.825619
4048.242188	-51.460705
4091.308594	-48.773468
4134.375000	-45.930077
4177.441406	-43.953117
4220.507812	-43.365768
4263.574219	-43.759411
4306.640625	-43.948711
4349.707031	-43.754387
4392.773438	-44.017014
4435.839844	-44.220604
4478.906250	-43.742085
4521.972656	-44.220352
4565.039062	-46.000439
4608.105469	-48.524334
4651.171875	-46.924046
4694.238281	-44.210743
4737.304688	-41.946541
4780.371094	-41.360493
4823.437500	-42.563465
4866.503906	-44.449978
4909.570312	-46.130009
4952.636719	-47.634792
4995.703125	-48.624882
5038.769531	-49.493591
5081.835938	-49.144386
5124.902344	-47.095196
5167.968750	-45.575516
5211.035156	-45.466984
5254.101562	-46.613922
5297.167969	-47.787006
5340.234375	-47.392822
5383.300781	-46.143192
5426.367188	-45.162231
5469.433594	-44.937145
5512.500000	-45.816830
5555.566406	-46.695724
5598.632812	-47.460239
5641.699219	-47.845264
5684.765625	-46.962154
5727.832031	-45.962246
5770.898438	-46.177845
5813.964844	-46.954887
5857.031250	-47.416389
5900.097656	-48.421932
5943.164062	-51.310738
5986.230469	-50.709579
6029.296875	-50.051247
6072.363281	-50.525146
6115.429688	-50.968937
6158.496094	-49.672314
6201.562500	-47.973518
6244.628906	-47.327412
6287.695312	-47.402115
6330.761719	-47.452572
6373.828125	-48.374329
6416.894531	-49.072704
6459.960938	-49.211899
6503.027344	-50.241718
6546.093750	-50.746529
6589.160156	-50.341999
6632.226562	-49.248383
6675.292969	-47.957355
6718.359375	-47.113647
6761.425781	-47.127369
6804.492188	-48.487556
6847.558594	-49.250679
6890.625000	-49.643398
6933.691406	-50.380810
6976.757812	-50.311443
7019.824219	-52.053558
7062.890625	-55.565746
7105.957031	-52.422077
7149.023438	-50.571758
7192.089844	-51.551662
7235.156250	-53.062180
7278.222656	-51.031578
7321.289062	-49.305405
7364.355469	-47.345573
7407.421875	-45.679115
7450.488281	-45.949459
7493.554688	-48.395359
7536.621094	-50.738205
7579.687500	-52.515366
7622.753906	-54.794373
7665.820312	-51.478119
7708.886719	-51.292679
7751.953125	-52.065910
7795.019531	-52.185043
7838.085938	-51.356285
7881.152344	-51.042408
7924.218750	-52.409447
7967.285156	-54.442188
8010.351562	-53.580647
8053.417969	-51.530037
8096.484375	-50.986794
8139.550781	-51.074284
8182.617188	-49.325573
8225.683594	-48.142586
8268.750000	-49.361008
8311.816406	-49.798187
8354.882812	-49.638466
8397.949219	-49.025772
8441.015625	-47.819195
8484.082031	-47.671452
8527.148438	-46.839458
8570.214844	-46.666401
8613.281250	-46.943958
8656.347656	-46.647095
8699.414062	-47.001610
8742.480469	-46.935871
8785.546875	-45.348946
8828.613281	-44.228630
8871.679688	-44.836868
8914.746094	-45.481869
8957.812500	-45.227970
9000.878906	-45.796131
9043.945312	-47.538372
9087.011719	-48.260796
9130.078125	-47.620117
9173.144531	-47.768894
9216.210938	-49.406071
9259.277344	-49.844475
9302.343750	-48.409176
9345.410156	-46.471603
9388.476562	-45.989395
9431.542969	-45.274742
9474.609375	-43.989891
9517.675781	-43.533207
9560.742188	-43.858143
9603.808594	-44.678215
9646.875000	-45.540874
9689.941406	-45.230213
9733.007812	-44.127674
9776.074219	-43.833717
9819.140625	-44.208183
9862.207031	-45.541878
9905.273438	-47.654850
9948.339844	-47.864159
9991.406250	-47.768322
10034.472656	-47.483521
10077.539062	-46.627270
10120.605469	-47.573071
10163.671875	-51.749931
10206.738281	-48.520992
10249.804688	-47.420795
10292.871094	-48.674381
10335.937500	-46.925297
10379.003906	-45.265587
10422.070312	-43.809334
10465.136719	-44.526215
10508.203125	-47.621937
10551.269531	-49.315922
10594.335938	-47.508465
10637.402344	-46.420185
10680.468750	-46.709179
10723.535156	-46.279110
10766.601562	-44.070179
10809.667969	-42.888687
10852.734375	-42.522152
10895.800781	-41.831448
10938.867188	-41.900551
10981.933594	-42.847706
11025.000000	-43.080208
11068.066406	-43.056015
11111.132812	-43.052505
11154.199219	-43.218174
11197.265625	-43.155159
11240.332031	-42.577927
11283.398438	-42.597012
11326.464844	-42.893608
11369.531250	-43.643272
11412.597656	-44.500942
11455.664062	-45.354412
11498.730469	-46.388767
11541.796875	-47.429237
11584.863281	-48.473557
11627.929688	-44.391472
11670.996094	-40.832638
11714.062500	-39.450790
11757.128906	-39.551998
11800.195312	-40.634525
11843.261719	-42.238247
11886.328125	-44.358913
11929.394531	-42.832169
11972.460938	-40.332928
12015.527344	-40.136932
12058.593750	-41.784534
12101.660156	-44.128944
12144.726562	-43.423069
12187.792969	-41.567085
12230.859375	-40.814819
12273.925781	-40.142509
12316.992188	-38.657951
12360.058594	-37.547142
12403.125000	-36.942780
12446.191406	-36.913448
12489.257812	-37.995247
12532.324219	-40.561661
12575.390625	-40.647133
12618.457031	-38.216846
12661.523438	-36.239132
12704.589844	-35.283897
12747.656250	-35.607956
12790.722656	-38.189217
12833.789062	-42.614555
12876.855469	-41.188641
12919.921875	-38.853844
12962.988281	-39.335304
13006.054688	-41.689274
13049.121094	-44.244217
13092.187500	-42.378403
13135.253906	-39.427120
13178.320312	-37.863701
13221.386719	-37.394627
13264.453125	-38.150894
13307.519531	-40.841763
13350.585938	-43.836567
13393.652344	-40.503780
13436.718750	-38.588718
13479.785156	-39.628822
13522.851562	-40.010387
13565.917969	-39.830448
13608.984375	-41.378044
13652.050781	-43.512966
13695.117188	-43.777283
13738.183594	-43.300201
13781.250000	-43.169540
13824.316406	-42.958553
13867.382812	-42.664547
13910.449219	-40.991840
13953.515625	-38.264740
13996.582031	-36.779648
14039.648438	-37.035694
14082.714844	-38.124866
14125.781250	-39.512463
14168.847656	-41.005905
14211.914062	-42.596882
14254.980469	-44.648846
14298.046875	-46.308685
14341.113281	-42.825760
14384.179688	-40.271027
14427.246094	-40.337791
14470.312500	-41.645073
14513.378906	-42.472591
14556.445312	-44.162697
14599.511719	-44.608158
14642.578125	-43.066612
14685.644531	-41.968681
14728.710938	-41.931026
14771.777344	-42.125511
14814.843750	-41.661190
14857.910156	-41.480957
14900.976562	-41.897243
14944.042969	-42.542946
14987.109375	-41.908550
15030.175781	-40.967873
15073.242188	-41.007469
15116.308594	-42.836933
15159.375000	-46.107292
15202.441406	-46.724297
15245.507812	-42.369473
15288.574219	-39.325649
15331.640625	-38.744110
15374.707031	-40.998993
15417.773438	-42.988400
15460.839844	-40.461464
15503.906250	-39.609241
15546.972656	-38.829021
15590.039062	-37.886040
15633.105469	-38.225067
15676.171875	-38.355114
15719.238281	-37.284191
15762.304688	-36.465225
15805.371094	-36.694160
15848.437500	-38.795631
15891.503906	-41.316406
15934.570312	-40.450623
15977.636719	-38.805603
16020.703125	-38.126518
16063.769531	-39.424862
16106.835938	-42.567772
16149.902344	-42.305958
16192.968750	-41.486454
16236.035156	-40.894741
16279.101562	-39.416500
16322.167969	-37.876038
16365.234375	-36.898903
16408.300781	-36.731647
16451.367188	-36.362576
16494.433594	-36.094402
16537.500000	-36.835674
16580.566406	-37.543262
16623.632812	-37.539955
16666.699219	-38.252132
16709.765625	-40.122749
16752.832031	-40.991138
16795.898438	-38.578285
16838.964844	-37.046185
16882.031250	-37.088261
16925.097656	-38.481236
16968.164062	-40.159187
17011.230469	-39.604454
17054.296875	-37.911694
17097.363281	-37.586224
17140.429688	-38.920780
17183.496094	-39.945530
17226.562500	-37.909199
17269.628906	-38.630955
17312.695312	-41.239220
17355.761719	-44.075787
17398.828125	-41.694820
17441.894531	-38.320789
17484.960938	-37.009964
17528.027344	-37.553478
17571.093750	-37.654808
17614.160156	-37.522430
17657.226562	-36.569103
17700.292969	-34.963360
17743.359375	-33.295322
17786.425781	-33.181538
17829.492188	-34.454155
17872.558594	-35.847298
17915.625000	-38.205406
17958.691406	-41.714390
18001.757812	-42.944401
18044.824219	-40.327503
18087.890625	-37.364101
18130.957031	-36.423824
18174.023438	-38.393265
18217.089844	-40.703373
18260.156250	-38.420597
18303.222656	-36.858784
18346.289062	-37.228279
18389.355469	-38.104599
18432.421875	-38.693626
18475.488281	-38.256130
18518.554688	-35.932140
18561.621094	-33.929016
18604.687500	-33.377209
18647.753906	-34.509972
18690.820312	-37.358597
18733.886719	-39.746796
18776.953125	-40.209885
18820.019531	-38.933464
18863.085938	-38.965027
18906.152344	-40.287018
18949.218750	-41.091022
18992.285156	-41.146130
19035.351562	-41.249584
19078.417969	-40.766880
19121.484375	-39.151054
19164.550781	-37.685513
19207.617188	-37.645020
19250.683594	-37.622623
19293.750000	-37.071228
19336.816406	-37.515778
19379.882812	-38.452114
19422.949219	-37.064373
19466.015625	-36.172424
19509.082031	-37.392315
19552.148438	-39.757679
19595.214844	-40.574841
19638.281250	-40.309101
19681.347656	-40.919724
19724.414062	-39.679268
19767.480469	-39.228825
19810.546875	-40.311714
19853.613281	-38.920486
19896.679688	-36.341873
19939.746094	-35.828026
19982.812500	-37.340916
20025.878906	-40.133640
20068.945312	-43.673893
20112.011719	-45.849808
20155.078125	-43.679543
20198.144531	-42.785965
20241.210938	-44.883049
20284.277344	-48.801220
20327.343750	-47.689888
20370.410156	-43.597485
20413.476562	-40.796124
20456.542969	-40.076920
20499.609375	-40.485310
20542.675781	-41.661156
20585.742188	-43.956821
20628.808594	-45.588284
20671.875000	-44.928738
20714.941406	-43.010521
20758.007812	-41.455822
20801.074219	-40.951515
20844.140625	-40.922291
20887.207031	-41.309109
20930.273438	-41.897961
20973.339844	-43.055485
21016.406250	-44.606819
21059.472656	-45.616714
21102.539062	-44.975433
21145.605469	-43.656307
21188.671875	-43.420811
21231.738281	-43.611496
21274.804688	-42.543949
21317.871094	-41.070717
21360.937500	-40.875999
21404.003906	-42.303539
21447.070312	-44.446198
21490.136719	-46.374023
21533.203125	-46.985622
21576.269531	-46.076263
21619.335938	-44.644142
21662.402344	-43.881500
21705.468750	-44.361675
21748.535156	-46.345081
21791.601562	-47.961296
21834.667969	-47.122669
21877.734375	-46.145882
21920.800781	-45.901386
21963.867188	-46.816181
22006.933594	-49.293556
