周波数 (Hz)	レベル (dB)
43.066406	-28.999693
86.132812	-26.568871
129.199219	-29.171770
172.265625	-35.665760
215.332031	-38.129986
258.398438	-43.607372
301.464844	-44.718082
344.531250	-42.358616
387.597656	-41.459602
430.664062	-42.808197
473.730469	-43.223637
516.796875	-45.359898
559.863281	-45.012493
602.929688	-46.541737
645.996094	-49.038818
689.062500	-51.030262
732.128906	-52.434532
775.195312	-45.156841
818.261719	-41.258434
861.328125	-41.476746
904.394531	-43.533424
947.460938	-45.893482
990.527344	-46.401772
1033.593750	-46.830940
1076.660156	-46.830002
1119.726562	-44.834148
1162.792969	-45.785290
1205.859375	-46.371170
1248.925781	-45.978203
1291.992188	-45.252598
1335.058594	-44.867287
1378.125000	-47.415825
1421.191406	-49.418896
1464.257812	-48.648003
1507.324219	-46.852573
1550.390625	-43.946194
1593.457031	-43.591461
1636.523438	-42.971771
1679.589844	-42.653015
1722.656250	-43.614475
1765.722656	-44.410461
1808.789062	-44.771309
1851.855469	-45.173004
1894.921875	-46.247387
1937.988281	-48.931339
1981.054688	-50.513756
2024.121094	-48.180290
2067.187500	-46.758926
2110.253906	-46.910324
2153.320312	-48.138474
2196.386719	-51.469566
2239.453125	-51.102398
2282.519531	-48.408001
2325.585938	-47.382591
2368.652344	-48.948711
2411.718750	-50.143272
2454.785156	-50.296677
2497.851562	-49.932297
2540.917969	-49.236603
2583.984375	-48.666645
2627.050781	-48.158497
2670.117188	-46.628353
2713.183594	-45.829182
2756.250000	-46.133579
2799.316406	-46.907856
2842.382812	-45.953709
2885.449219	-44.761848
2928.515625	-43.039047
2971.582031	-43.073009
3014.648438	-45.815796
3057.714844	-48.013268
3100.781250	-45.491711
3143.847656	-43.056015
3186.914062	-41.907234
3229.980469	-41.461887
3273.046875	-42.155468
3316.113281	-43.695187
3359.179688	-45.059273
3402.246094	-46.554329
3445.312500	-44.972485
3488.378906	-44.992367
3531.445312	-46.756386
3574.511719	-46.550617
3617.578125	-46.745472
3660.644531	-45.492176
3703.710938	-44.059238
3746.777344	-43.539875
3789.843750	-44.021038
3832.910156	-43.073936
3875.976562	-41.992283
3919.042969	-41.368019
3962.109375	-41.610134
4005.175781	-42.548168
4048.242188	-42.062050
4091.308594	-40.281811
4134.375000	-39.716042
4177.441406	-40.803322
4220.507812	-42.202015
4263.574219	-42.946983
4306.640625	-43.589928
4349.707031	-44.364151
4392.773438	-45.565002
4435.839844	-45.857811
4478.906250	-45.671120
4521.972656	-46.076015
4565.039062	-46.100529
4608.105469	-47.981670
4651.171875	-52.540504
4694.238281	-53.994953
4737.304688	-47.699535
4780.371094	-45.021652
4823.437500	-45.402817
4866.503906	-46.021191
4909.570312	-45.595734
4952.636719	-44.787666
4995.703125	-47.145443
5038.769531	-54.199902
5081.835938	-53.411285
5124.902344	-54.000431
5167.968750	-54.029541
5211.035156	-49.710678
5254.101562	-47.548233
5297.167969	-48.334641
5340.234375	-51.435936
5383.300781	-49.063202
5426.367188	-48.774757
5469.433594	-51.494019
5512.500000	-53.310642
5555.566406	-54.025940
5598.632812	-54.687908
5641.699219	-55.043995
5684.765625	-54.974899
5727.832031	-54.502460
5770.898438	-55.557961
5813.964844	-53.477863
5857.031250	-49.850887
5900.097656	-48.660786
5943.164062	-48.808800
5986.230469	-49.078793
6029.296875	-49.499947
6072.363281	-51.056534
6115.429688	-51.006020
6158.496094	-50.884193
6201.562500	-52.210896
6244.628906	-54.961693
6287.695312	-57.516041
6330.761719	-56.377304
6373.828125	-53.632187
6416.894531	-51.734222
6459.960938	-50.549843
6503.027344	-50.311138
6546.093750	-50.172440
6589.160156	-50.652325
6632.226562	-51.932735
6675.292969	-53.403572
6718.359375	-53.095890
6761.425781	-53.222046
6804.492188	-55.344242
6847.558594	-58.198372
6890.625000	-59.479599
6933.691406	-54.570873
6976.757812	-51.522774
7019.824219	-50.172485
7062.890625	-48.828522
7105.957031	-48.181831
7149.023438	-49.660454
7192.089844	-52.726856
7235.156250	-54.385860
7278.222656	-54.142647
7321.289062	-53.052479
7364.355469	-51.241573
7407.421875	-50.016373
7450.488281	-50.516563
7493.554688	-52.334202
7536.621094	-51.332340
7579.687500	-49.193668
7622.753906	-48.863914
7665.820312	-50.709911
7708.886719	-51.208645
7751.953125	-51.545082
7795.019531	-52.275692
7838.085938	-52.990982
7881.152344	-53.040703
7924.218750	-51.818352
7967.285156	-50.904854
8010.351562	-50.966892
8053.417969	-51.498802
8096.484375	-51.419334
8139.550781	-50.984413
8182.617188	-50.940338
8225.683594	-51.446747
8268.750000	-52.776215
8311.816406	-51.041004
8354.882812	-50.414738
8397.949219	-51.147228
8441.015625	-52.008526
8484.082031	-52.357941
8527.148438	-50.561859
8570.214844	-48.686577
8613.281250	-49.376911
8656.347656	-52.157345
8699.414062	-51.483067
8742.480469	-50.446674
8785.546875	-51.686134
8828.613281	-54.697018
8871.679688	-54.238094
8914.746094	-52.539932
8957.812500	-50.856937
9000.878906	-49.152161
9043.945312	-48.943954
9087.011719	-51.053341
9130.078125	-50.520363
9173.144531	-48.666988
9216.210938	-49.411495
9259.277344	-51.106117
9302.343750	-47.266911
9345.410156	-47.375595
9388.476562	-49.357620
9431.542969	-49.460270
9474.609375	-48.438629
9517.675781	-47.924477
9560.742188	-47.193272
9603.808594	-47.074844
9646.875000	-47.617176
9689.941406	-48.191002
9733.007812	-51.740963
9776.074219	-51.666656
9819.140625	-48.019485
9862.207031	-47.543678
9905.273438	-47.046181
9948.339844	-49.080833
9991.406250	-48.299294
10034.472656	-48.193584
10077.539062	-48.296520
10120.605469	-48.118263
10163.671875	-48.479359
10206.738281	-48.294579
10249.804688	-46.938637
10292.871094	-44.853123
10335.937500	-45.415569
10379.003906	-47.967415
10422.070312	-49.238132
10465.136719	-49.669487
10508.203125	-50.814663
10551.269531	-49.520077
10594.335938	-48.146702
10637.402344	-48.963860
10680.468750	-49.699883
10723.535156	-49.945107
10766.601562	-48.152073
10809.667969	-49.731316
10852.734375	-50.712818
10895.800781	-49.040257
10938.867188	-46.177425
10981.933594	-48.143368
11025.000000	-49.727478
11068.066406	-47.588402
11111.132812	-46.735756
11154.199219	-46.958145
11197.265625	-48.357361
11240.332031	-47.841125
11283.398438	-45.292274
11326.464844	-43.844612
11369.531250	-44.552692
11412.597656	-46.268398
11455.664062	-47.063862
11498.730469	-49.515244
11541.796875	-48.886532
11584.863281	-44.967724
11627.929688	-44.195324
11670.996094	-45.512344
11714.062500	-45.952717
11757.128906	-47.418667
11800.195312	-47.693321
11843.261719	-47.102871
11886.328125	-49.624977
11929.394531	-51.344414
11972.460938	-49.142349
12015.527344	-48.385822
12058.593750	-47.820740
12101.660156	-44.858818
12144.726562	-43.483410
12187.792969	-43.997963
12230.859375	-44.614433
12273.925781	-43.344273
12316.992188	-42.087048
12360.058594	-41.865520
12403.125000	-41.421940
12446.191406	-40.553036
12489.257812	-39.602001
12532.324219	-39.917767
12575.390625	-42.422543
12618.457031	-44.494778
12661.523438	-43.946072
12704.589844	-42.408951
12747.656250	-43.167484
12790.722656	-45.698879
12833.789062	-45.763786
12876.855469	-43.225082
12919.921875	-41.370838
12962.988281	-41.201256
13006.054688	-40.143715
13049.121094	-39.223049
13092.187500	-39.438717
13135.253906	-39.254219
13178.320312	-38.624020
13221.386719	-38.659039
13264.453125	-40.949249
13307.519531	-44.791702
13350.585938	-45.107517
13393.652344	-42.350506
13436.718750	-39.954269
13479.785156	-40.152939
13522.851562	-41.090069
13565.917969	-41.439140
13608.984375	-42.521023
13652.050781	-41.478241
13695.117188	-41.220360
13738.183594	-44.560844
13781.250000	-44.493450
13824.316406	-44.077415
13867.382812	-45.445660
13910.449219	-42.854160
13953.515625	-39.705692
13996.582031	-40.286873
14039.648438	-44.001884
14082.714844	-45.947701
14125.781250	-43.725471
14168.847656	-42.750751
14211.914062	-43.991264
14254.980469	-45.624912
14298.046875	-46.445919
14341.113281	-45.072464
14384.179688	-41.318188
14427.246094	-40.401417
14470.312500	-41.235439
14513.378906	-40.865776
14556.445312	-41.418842
14599.511719	-41.582283
14642.578125	-40.210102
14685.644531	-40.729248
14728.710938	-42.021976
14771.777344	-40.709587
14814.843750	-39.490177
14857.910156	-38.555359
14900.976562	-38.976898
14944.042969	-41.440701
14987.109375	-41.453716
15030.175781	-39.057755
15073.242188	-38.588322
15116.308594	-39.253120
15159.375000	-40.072113
15202.441406	-40.047970
15245.507812	-42.040806
15288.574219	-41.958012
15331.640625	-41.690453
15374.707031	-44.668396
15417.773438	-44.619179
15460.839844	-41.085419
15503.906250	-37.639706
15546.972656	-35.216988
15590.039062	-35.320286
15633.105469	-37.614376
15676.171875	-39.115997
15719.238281	-38.470402
15762.304688	-38.040215
15805.371094	-36.976151
15848.437500	-35.955620
15891.503906	-37.790134
15934.570312	-42.578033
15977.636719	-43.369030
16020.703125	-38.796337
16063.769531	-35.437981
16106.835938	-34.881306
16149.902344	-36.637333
16192.968750	-38.574699
16236.035156	-40.950737
16279.101562	-44.600967
16322.167969	-40.507195
16365.234375	-37.114510
16408.300781	-36.685322
16451.367188	-37.665504
16494.433594	-37.815613
16537.500000	-38.284222
16580.566406	-39.750137
16623.632812	-38.396599
16666.699219	-36.868637
16709.765625	-38.042694
16752.832031	-39.099220
16795.898438	-37.235783
16838.964844	-37.408009
16882.031250	-38.646309
16925.097656	-38.987209
16968.164062	-39.904919
17011.230469	-38.858883
17054.296875	-39.513069
17097.363281	-41.715492
17140.429688	-40.610294
17183.496094	-39.909573
17226.562500	-38.395176
17269.628906	-37.489479
17312.695312	-36.986393
17355.761719	-36.800869
17398.828125	-35.918674
17441.894531	-35.481560
17484.960938	-37.604088
17528.027344	-40.981289
17571.093750	-42.185459
17614.160156	-41.822784
17657.226562	-40.552727
17700.292969	-38.073154
17743.359375	-37.755871
17786.425781	-38.666729
17829.492188	-38.045319
17872.558594	-36.838779
17915.625000	-36.305122
17958.691406	-36.379829
18001.757812	-38.032211
18044.824219	-40.640278
18087.890625	-43.138447
18130.957031	-44.672245
18174.023438	-44.185478
18217.089844	-45.059925
18260.156250	-45.442551
18303.222656	-42.835453
18346.289062	-42.162594
18389.355469	-43.639606
18432.421875	-44.874035
18475.488281	-43.226818
18518.554688	-43.488644
18561.621094	-43.226681
18604.687500	-42.385765
18647.753906	-40.995819
18690.820312	-41.110279
18733.886719	-42.332520
18776.953125	-40.817677
18820.019531	-40.395939
18863.085938	-41.257359
18906.152344	-41.750496
18949.218750	-42.358692
18992.285156	-43.497753
19035.351562	-43.454571
19078.417969	-46.567741
19121.484375	-47.524349
19164.550781	-45.369213
19207.617188	-45.218903
19250.683594	-42.019073
19293.750000	-40.423065
19336.816406	-40.453850
19379.882812	-38.536560
19422.949219	-36.442558
19466.015625	-36.225037
19509.082031	-37.377541
19552.148438	-38.171333
19595.214844	-39.123501
19638.281250	-38.777576
19681.347656	-37.476837
19724.414062	-36.778976
19767.480469	-36.623257
19810.546875	-37.574455
19853.613281	-39.151070
19896.679688	-38.985596
19939.746094	-38.799149
19982.812500	-40.131119
20025.878906	-42.117325
20068.945312	-44.449337
20112.011719	-46.141094
20155.078125	-44.251957
20198.144531	-42.797432
20241.210938	-44.293446
20284.277344	-48.228668
20327.343750	-45.524933
20370.410156	-43.508255
20413.476562	-44.404945
20456.542969	-46.070412
20499.609375	-45.209522
20542.675781	-43.034504
20585.742188	-41.195694
20628.808594	-41.869606
20671.875000	-42.384846
20714.941406	-40.966763
20758.007812	-40.658096
20801.074219	-41.157379
20844.140625	-41.152569
20887.207031	-40.539497
20930.273438	-41.226166
20973.339844	-43.704624
21016.406250	-45.711636
21059.472656	-44.676956
21102.539062	-42.698414
21145.605469	-42.215504
21188.671875	-44.857620
21231.738281	-49.184708
21274.804688	-51.717190
21317.871094	-51.208126
21360.937500	-46.986099
21404.003906	-45.928604
21447.070312	-47.340004
21490.136719	-47.082455
21533.203125	-44.252911
21576.269531	-43.065304
21619.335938	-43.873779
21662.402344	-45.892857
21705.468750	-47.219833
21748.535156	-47.154167
21791.601562	-45.773991
21834.667969	-45.894421
21877.734375	-47.428951
21920.800781	-48.804932
21963.867188	-50.414162
22006.933594	-51.947990
