周波数 (Hz)	レベル (dB)
43.066406	-27.820837
86.132812	-24.420921
129.199219	-26.287542
172.265625	-34.514790
215.332031	-37.661053
258.398438	-42.618187
301.464844	-42.564907
344.531250	-41.005009
387.597656	-41.298260
430.664062	-40.128868
473.730469	-43.489391
516.796875	-43.503632
559.863281	-44.424530
602.929688	-47.952686
645.996094	-50.049374
689.062500	-49.316326
732.128906	-48.702278
775.195312	-46.001644
818.261719	-43.712101
861.328125	-44.385124
904.394531	-44.818375
947.460938	-44.985455
990.527344	-45.622292
1033.593750	-45.528660
1076.660156	-46.606300
1119.726562	-46.740078
1162.792969	-48.256126
1205.859375	-49.251869
1248.925781	-50.612160
1291.992188	-50.278969
1335.058594	-47.473019
1378.125000	-46.524712
1421.191406	-46.933853
1464.257812	-47.302616
1507.324219	-49.408356
1550.390625	-49.265018
1593.457031	-48.317951
1636.523438	-47.401657
1679.589844	-44.055134
1722.656250	-42.467464
1765.722656	-43.190090
1808.789062	-44.554874
1851.855469	-45.460194
1894.921875	-45.952763
1937.988281	-47.266251
1981.054688	-47.061184
2024.121094	-44.880291
2067.187500	-43.152691
2110.253906	-42.393784
2153.320312	-42.835495
2196.386719	-44.417870
2239.453125	-46.002773
2282.519531	-45.921276
2325.585938	-45.196140
2368.652344	-45.024673
2411.718750	-45.092297
2454.785156	-46.055454
2497.851562	-46.724110
2540.917969	-46.189178
2583.984375	-45.032669
2627.050781	-44.122105
2670.117188	-44.400059
2713.183594	-46.011204
2756.250000	-48.892281
2799.316406	-49.077469
2842.382812	-47.612003
2885.449219	-46.828163
2928.515625	-45.737659
2971.582031	-44.395119
3014.648438	-43.240097
3057.714844	-42.958412
3100.781250	-43.722569
3143.847656	-45.402378
3186.914062	-47.840992
3229.980469	-50.460964
3273.046875	-50.803326
3316.113281	-49.150394
3359.179688	-47.209705
3402.246094	-46.897793
3445.312500	-46.776592
3488.378906	-45.477886
3531.445312	-45.619373
3574.511719	-47.504562
3617.578125	-47.844429
3660.644531	-47.705406
3703.710938	-46.758701
3746.777344	-45.673965
3789.843750	-44.185863
3832.910156	-42.289917
3875.976562	-41.259392
3919.042969	-41.349232
3962.109375	-42.468468
4005.175781	-44.459358
4048.242188	-46.727676
4091.308594	-47.790043
4134.375000	-45.764698
4177.441406	-44.748837
4220.507812	-44.714935
4263.574219	-46.081043
4306.640625	-49.897869
4349.707031	-51.746334
4392.773438	-50.610439
4435.839844	-49.051132
4478.906250	-49.035469
4521.972656	-49.713524
4565.039062	-50.070873
4608.105469	-48.519123
4651.171875	-47.529285
4694.238281	-48.324745
4737.304688	-49.012642
4780.371094	-50.544189
4823.437500	-50.713135
4866.503906	-50.478798
4909.570312	-50.805309
4952.636719	-51.213257
4995.703125	-52.087044
5038.769531	-48.792236
5081.835938	-46.456985
5124.902344	-46.718399
5167.968750	-48.488964
5211.035156	-51.584450
5254.101562	-54.026207
5297.167969	-53.543350
5340.234375	-49.678326
5383.300781	-46.015293
5426.367188	-43.692314
5469.433594	-43.149254
5512.500000	-44.176540
5555.566406	-46.579102
5598.632812	-49.008366
5641.699219	-50.043831
5684.765625	-49.011681
5727.832031	-48.342766
5770.898438	-48.111423
5813.964844	-47.627064
5857.031250	-47.860931
5900.097656	-48.729870
5943.164062	-50.668087
5986.230469	-53.131096
6029.296875	-53.244141
6072.363281	-51.645428
6115.429688	-50.628235
6158.496094	-49.932999
6201.562500	-48.820477
6244.628906	-47.266834
6287.695312	-47.222485
6330.761719	-48.656761
6373.828125	-49.454117
6416.894531	-49.678955
6459.960938	-48.649467
6503.027344	-47.920639
6546.093750	-47.421467
6589.160156	-49.025204
6632.226562	-53.027103
6675.292969	-55.106018
6718.359375	-53.344696
6761.425781	-53.279976
6804.492188	-54.414062
6847.558594	-54.116016
6890.625000	-52.116608
6933.691406	-50.873501
6976.757812	-49.177532
7019.824219	-47.090721
7062.890625	-47.227787
7105.957031	-48.210377
7149.023438	-49.314190
7192.089844	-50.678486
7235.156250	-51.989040
7278.222656	-48.790627
7321.289062	-46.332718
7364.355469	-45.227398
7407.421875	-46.421318
7450.488281	-49.258739
7493.554688	-50.839661
7536.621094	-51.624771
7579.687500	-51.248390
7622.753906	-49.864353
7665.820312	-50.041538
7708.886719	-52.288734
7751.953125	-53.147949
7795.019531	-52.392048
7838.085938	-52.106720
7881.152344	-51.935970
7924.218750	-51.803001
7967.285156	-52.419922
8010.351562	-52.693668
8053.417969	-52.449440
8096.484375	-51.161076
8139.550781	-49.889118
8182.617188	-49.353539
8225.683594	-50.381001
8268.750000	-52.005791
8311.816406	-52.715424
8354.882812	-53.337147
8397.949219	-55.047386
8441.015625	-56.378490
8484.082031	-55.333206
8527.148438	-53.939064
8570.214844	-53.556854
8613.281250	-52.021210
8656.347656	-49.700928
8699.414062	-47.111191
8742.480469	-46.130219
8785.546875	-46.525448
8828.613281	-47.510803
8871.679688	-48.847637
8914.746094	-50.284615
8957.812500	-50.781879
9000.878906	-49.989269
9043.945312	-48.989502
9087.011719	-48.445499
9130.078125	-47.272999
9173.144531	-46.526783
9216.210938	-45.845501
9259.277344	-45.673485
9302.343750	-46.876102
9345.410156	-47.880325
9388.476562	-49.032681
9431.542969	-50.309582
9474.609375	-51.018963
9517.675781	-50.655193
9560.742188	-50.303875
9603.808594	-48.555779
9646.875000	-47.266033
9689.941406	-46.838234
9733.007812	-47.206154
9776.074219	-48.185238
9819.140625	-47.841587
9862.207031	-47.026272
9905.273438	-46.516953
9948.339844	-46.875977
9991.406250	-46.888439
10034.472656	-45.587029
10077.539062	-44.210812
10120.605469	-42.848293
10163.671875	-42.336014
10206.738281	-43.590725
10249.804688	-45.846672
10292.871094	-47.506931
10335.937500	-47.646431
10379.003906	-46.178123
10422.070312	-45.689507
10465.136719	-45.489273
10508.203125	-44.632515
10551.269531	-46.454891
10594.335938	-50.598976
10637.402344	-52.416691
10680.468750	-51.468102
10723.535156	-49.653023
10766.601562	-47.609283
10809.667969	-47.342365
10852.734375	-47.247566
10895.800781	-46.525707
10938.867188	-46.332863
10981.933594	-46.674717
11025.000000	-47.052055
11068.066406	-47.780392
11111.132812	-48.398632
11154.199219	-48.952675
11197.265625	-49.968567
11240.332031	-46.396046
11283.398438	-43.423019
11326.464844	-41.758690
11369.531250	-42.965038
11412.597656	-45.379261
11455.664062	-46.684963
11498.730469	-48.262581
11541.796875	-49.598518
11584.863281	-50.291027
11627.929688	-47.324711
11670.996094	-44.878292
11714.062500	-44.301422
11757.128906	-44.932987
11800.195312	-45.841255
11843.261719	-44.869362
11886.328125	-42.337543
11929.394531	-39.910049
11972.460938	-38.800766
12015.527344	-39.315868
12058.593750	-39.237732
12101.660156	-39.152111
12144.726562	-39.800255
12187.792969	-41.712379
12230.859375	-44.754391
12273.925781	-46.702980
12316.992188	-47.835342
12360.058594	-46.831051
12403.125000	-43.725693
12446.191406	-41.818974
12489.257812	-41.416443
12532.324219	-41.757568
12575.390625	-43.419151
12618.457031	-46.540569
12661.523438	-47.225273
12704.589844	-43.035183
12747.656250	-39.249428
12790.722656	-38.068371
12833.789062	-38.336632
12876.855469	-39.632057
12919.921875	-42.458973
12962.988281	-43.695282
13006.054688	-42.548302
13049.121094	-43.751625
13092.187500	-45.429096
13135.253906	-45.145184
13178.320312	-43.883263
13221.386719	-42.050461
13264.453125	-40.909096
13307.519531	-39.898685
13350.585938	-39.162914
13393.652344	-39.842075
13436.718750	-42.485821
13479.785156	-46.548042
13522.851562	-48.577709
13565.917969	-46.262852
13608.984375	-44.082104
13652.050781	-44.171192
13695.117188	-43.290318
13738.183594	-41.345715
13781.250000	-40.854511
13824.316406	-41.664349
13867.382812	-42.722725
13910.449219	-40.124691
13953.515625	-38.411530
13996.582031	-39.031536
14039.648438	-40.450947
14082.714844	-41.160408
14125.781250	-41.075901
14168.847656	-41.723385
14211.914062	-43.638428
14254.980469	-44.838844
14298.046875	-44.702511
14341.113281	-41.268326
14384.179688	-38.805405
14427.246094	-37.526134
14470.312500	-36.852856
14513.378906	-37.293785
14556.445312	-39.131073
14599.511719	-41.395710
14642.578125	-40.024315
14685.644531	-37.259129
14728.710938	-35.412235
14771.777344	-35.347370
14814.843750	-38.193867
14857.910156	-43.173340
14900.976562	-43.271114
14944.042969	-42.117989
14987.109375	-41.294094
15030.175781	-39.166328
15073.242188	-37.080025
15116.308594	-36.725780
15159.375000	-39.169987
15202.441406	-43.908226
15245.507812	-43.106155
15288.574219	-41.737942
15331.640625	-43.112240
15374.707031	-42.172642
15417.773438	-39.823452
15460.839844	-37.428986
15503.906250	-36.211658
15546.972656	-35.369946
15590.039062	-34.100208
15633.105469	-33.909321
15676.171875	-35.177773
15719.238281	-37.191998
15762.304688	-37.726604
15805.371094	-36.476566
15848.437500	-35.410633
15891.503906	-35.965061
15934.570312	-36.991947
15977.636719	-37.724762
16020.703125	-37.747601
16063.769531	-37.762074
16106.835938	-38.274014
16149.902344	-39.068344
16192.968750	-38.897167
16236.035156	-38.017048
16279.101562	-38.029270
16322.167969	-37.443600
16365.234375	-37.860188
16408.300781	-38.952877
16451.367188	-39.375221
16494.433594	-39.266804
16537.500000	-36.747498
16580.566406	-35.070366
16623.632812	-36.190605
16666.699219	-40.704433
16709.765625	-44.720367
16752.832031	-42.837460
16795.898438	-40.658272
16838.964844	-39.437656
16882.031250	-41.018383
16925.097656	-42.292206
16968.164062	-39.792824
17011.230469	-38.960464
17054.296875	-39.392403
17097.363281	-38.885426
17140.429688	-37.847839
17183.496094	-38.658028
17226.562500	-41.909584
17269.628906	-43.637127
17312.695312	-43.253410
17355.761719	-43.600361
17398.828125	-43.141834
17441.894531	-42.887936
17484.960938	-41.839287
17528.027344	-39.656811
17571.093750	-39.646442
17614.160156	-40.576126
17657.226562	-41.653355
17700.292969	-42.195072
17743.359375	-42.845348
17786.425781	-41.375473
17829.492188	-38.602852
17872.558594	-37.162914
17915.625000	-36.214188
17958.691406	-36.403797
18001.757812	-37.560631
18044.824219	-39.351933
18087.890625	-37.355400
18130.957031	-35.856285
18174.023438	-36.190010
18217.089844	-37.991207
18260.156250	-40.225666
18303.222656	-39.993076
18346.289062	-37.385498
18389.355469	-36.523357
18432.421875	-38.433937
18475.488281	-42.449329
18518.554688	-42.589443
18561.621094	-40.298286
18604.687500	-38.385597
18647.753906	-37.819050
18690.820312	-39.607136
18733.886719	-44.203773
18776.953125	-44.177036
18820.019531	-42.236462
18863.085938	-40.689880
18906.152344	-40.694199
18949.218750	-42.515190
18992.285156	-44.297531
19035.351562	-43.139580
19078.417969	-43.847900
19121.484375	-44.510807
19164.550781	-41.385536
19207.617188	-38.306316
19250.683594	-36.539478
19293.750000	-36.866409
19336.816406	-38.503448
19379.882812	-40.333767
19422.949219	-41.865845
19466.015625	-44.346535
19509.082031	-46.793468
19552.148438	-43.629925
19595.214844	-41.294800
19638.281250	-41.257435
19681.347656	-41.616600
19724.414062	-41.741009
19767.480469	-42.890881
19810.546875	-43.845005
19853.613281	-42.839809
19896.679688	-42.716404
19939.746094	-42.964195
19982.812500	-42.356728
20025.878906	-41.506805
20068.945312	-39.975510
20112.011719	-38.262863
20155.078125	-38.704872
20198.144531	-42.251499
20241.210938	-44.942757
20284.277344	-42.680771
20327.343750	-41.285362
20370.410156	-40.694725
20413.476562	-41.419807
20456.542969	-43.814522
20499.609375	-46.252716
20542.675781	-44.838985
20585.742188	-42.111095
20628.808594	-41.055367
20671.875000	-41.553360
20714.941406	-42.790062
20758.007812	-43.584461
20801.074219	-43.505985
20844.140625	-43.715786
20887.207031	-44.023144
20930.273438	-45.063435
20973.339844	-45.476715
21016.406250	-42.979145
21059.472656	-41.602043
21102.539062	-42.284790
21145.605469	-44.609676
21188.671875	-48.045818
21231.738281	-50.285877
21274.804688	-49.400356
21317.871094	-47.747925
21360.937500	-47.051662
21404.003906	-47.865170
21447.070312	-48.678692
21490.136719	-48.238941
21533.203125	-49.777676
21576.269531	-51.508816
21619.335938	-49.472633
21662.402344	-48.392128
21705.468750	-48.847591
21748.535156	-49.934566
21791.601562	-49.342487
21834.667969	-49.448544
21877.734375	-50.665478
21920.800781	-51.148624
21963.867188	-50.657284
22006.933594	-49.427162
