周波数 (Hz)	レベル (dB)
43.066406	-29.185167
86.132812	-24.683681
129.199219	-25.804510
172.265625	-32.127235
215.332031	-37.374119
258.398438	-43.650028
301.464844	-44.499641
344.531250	-41.383862
387.597656	-40.160107
430.664062	-39.723595
473.730469	-41.064453
516.796875	-42.241478
559.863281	-44.506016
602.929688	-46.835503
645.996094	-49.368370
689.062500	-50.070400
732.128906	-48.623211
775.195312	-43.637970
818.261719	-40.931881
861.328125	-42.451832
904.394531	-44.189835
947.460938	-44.767643
990.527344	-44.834995
1033.593750	-44.964031
1076.660156	-45.568077
1119.726562	-45.265064
1162.792969	-48.143223
1205.859375	-46.362812
1248.925781	-45.196903
1291.992188	-44.599449
1335.058594	-44.124859
1378.125000	-46.436398
1421.191406	-49.799259
1464.257812	-48.928219
1507.324219	-49.147781
1550.390625	-50.924973
1593.457031	-49.220455
1636.523438	-45.481991
1679.589844	-43.201721
1722.656250	-42.105804
1765.722656	-42.444328
1808.789062	-43.135765
1851.855469	-44.144794
1894.921875	-46.005241
1937.988281	-49.187317
1981.054688	-52.713966
2024.121094	-52.326584
2067.187500	-50.045727
2110.253906	-46.855587
2153.320312	-45.882175
2196.386719	-47.102268
2239.453125	-48.556484
2282.519531	-49.161366
2325.585938	-47.593758
2368.652344	-44.992107
2411.718750	-42.999195
2454.785156	-43.318226
2497.851562	-44.503002
2540.917969	-48.374031
2583.984375	-51.951832
2627.050781	-53.309216
2670.117188	-48.588436
2713.183594	-44.670250
2756.250000	-42.928932
2799.316406	-43.044956
2842.382812	-42.789688
2885.449219	-42.582256
2928.515625	-43.480961
2971.582031	-46.504040
3014.648438	-52.136883
3057.714844	-53.742363
3100.781250	-50.594574
3143.847656	-49.591469
3186.914062	-49.814590
3229.980469	-49.550182
3273.046875	-46.348835
3316.113281	-43.122776
3359.179688	-41.968933
3402.246094	-42.807316
3445.312500	-44.955433
3488.378906	-46.676315
3531.445312	-47.209763
3574.511719	-50.122070
3617.578125	-51.441288
3660.644531	-47.936653
3703.710938	-46.119061
3746.777344	-45.801991
3789.843750	-44.766815
3832.910156	-44.699062
3875.976562	-45.626575
3919.042969	-47.676292
3962.109375	-49.371315
4005.175781	-50.436100
4048.242188	-47.637989
4091.308594	-46.084484
4134.375000	-45.576874
4177.441406	-45.911972
4220.507812	-45.896416
4263.574219	-45.043491
4306.640625	-44.558216
4349.707031	-45.285488
4392.773438	-46.301865
4435.839844	-46.573036
4478.906250	-48.243153
4521.972656	-50.528778
4565.039062	-53.613026
4608.105469	-55.359810
4651.171875	-51.570625
4694.238281	-48.570087
4737.304688	-48.809906
4780.371094	-51.004921
4823.437500	-50.559315
4866.503906	-48.697842
4909.570312	-48.921459
4952.636719	-49.109547
4995.703125	-48.197033
5038.769531	-48.919472
5081.835938	-49.780685
5124.902344	-50.812962
5167.968750	-53.251801
5211.035156	-56.803444
5254.101562	-54.846584
5297.167969	-54.530304
5340.234375	-52.116692
5383.300781	-47.569389
5426.367188	-45.188156
5469.433594	-45.677532
5512.500000	-46.696358
5555.566406	-47.675316
5598.632812	-47.979618
5641.699219	-49.118645
5684.765625	-50.488949
5727.832031	-50.916580
5770.898438	-52.826427
5813.964844	-54.458546
5857.031250	-55.955570
5900.097656	-56.203365
5943.164062	-55.000557
5986.230469	-55.137283
6029.296875	-55.524395
6072.363281	-53.569141
6115.429688	-50.728138
6158.496094	-49.857998
6201.562500	-51.162746
6244.628906	-54.044422
6287.695312	-53.433899
6330.761719	-51.322449
6373.828125	-50.197399
6416.894531	-49.435711
6459.960938	-48.625046
6503.027344	-48.774689
6546.093750	-49.854042
6589.160156	-51.676609
6632.226562	-52.976944
6675.292969	-50.806080
6718.359375	-48.696697
6761.425781	-50.129681
6804.492188	-48.840000
6847.558594	-47.408108
6890.625000	-46.704697
6933.691406	-46.971436
6976.757812	-47.022385
7019.824219	-46.786541
7062.890625	-47.498009
7105.957031	-49.702515
7149.023438	-52.608028
7192.089844	-53.746296
7235.156250	-52.962910
7278.222656	-51.052792
7321.289062	-49.633533
7364.355469	-48.874958
7407.421875	-47.701553
7450.488281	-47.563126
7493.554688	-48.178253
7536.621094	-49.074768
7579.687500	-49.547035
7622.753906	-49.547127
7665.820312	-49.841568
7708.886719	-50.955612
7751.953125	-50.097904
7795.019531	-50.590160
7838.085938	-51.690685
7881.152344	-54.869919
7924.218750	-57.231812
7967.285156	-53.779854
8010.351562	-52.661217
8053.417969	-53.330276
8096.484375	-52.776684
8139.550781	-52.698772
8182.617188	-53.858311
8225.683594	-53.539856
8268.750000	-52.157372
8311.816406	-50.624763
8354.882812	-49.876205
8397.949219	-49.957859
8441.015625	-51.394943
8484.082031	-52.818981
8527.148438	-51.717899
8570.214844	-48.827950
8613.281250	-48.036362
8656.347656	-49.014099
8699.414062	-51.319981
8742.480469	-52.167156
8785.546875	-51.342087
8828.613281	-49.292046
8871.679688	-46.921932
8914.746094	-46.026272
8957.812500	-46.247883
9000.878906	-47.480225
9043.945312	-48.098606
9087.011719	-48.531635
9130.078125	-48.816643
9173.144531	-48.204315
9216.210938	-48.325962
9259.277344	-48.672054
9302.343750	-48.227707
9345.410156	-47.230724
9388.476562	-47.883110
9431.542969	-49.526520
9474.609375	-50.303131
9517.675781	-49.795425
9560.742188	-49.589287
9603.808594	-50.678894
9646.875000	-50.705784
9689.941406	-48.060860
9733.007812	-46.654408
9776.074219	-45.049290
9819.140625	-46.440739
9862.207031	-49.085835
9905.273438	-49.595200
9948.339844	-50.951912
9991.406250	-51.133476
10034.472656	-49.273178
10077.539062	-49.271034
10120.605469	-49.064491
10163.671875	-48.143661
10206.738281	-47.341721
10249.804688	-47.814232
10292.871094	-49.381004
10335.937500	-50.994961
10379.003906	-51.797367
10422.070312	-51.391724
10465.136719	-50.744961
10508.203125	-49.858356
10551.269531	-49.983795
10594.335938	-51.081165
10637.402344	-50.986893
10680.468750	-47.198925
10723.535156	-44.464596
10766.601562	-42.986259
10809.667969	-42.657402
10852.734375	-44.109200
10895.800781	-47.757004
10938.867188	-50.703968
10981.933594	-50.679546
11025.000000	-48.927555
11068.066406	-48.087788
11111.132812	-46.160904
11154.199219	-46.297806
11197.265625	-47.506039
11240.332031	-45.600533
11283.398438	-43.801056
11326.464844	-43.847824
11369.531250	-45.320290
11412.597656	-47.010914
11455.664062	-46.064240
11498.730469	-44.648998
11541.796875	-44.085594
11584.863281	-45.766888
11627.929688	-47.547131
11670.996094	-46.911987
11714.062500	-44.928223
11757.128906	-44.172829
11800.195312	-44.606354
11843.261719	-46.616470
11886.328125	-48.482285
11929.394531	-49.385345
11972.460938	-51.183674
12015.527344	-50.329525
12058.593750	-46.738853
12101.660156	-45.871460
12144.726562	-47.295750
12187.792969	-50.336117
12230.859375	-48.239029
12273.925781	-44.409084
12316.992188	-42.639511
12360.058594	-42.451618
12403.125000	-42.049603
12446.191406	-41.081203
12489.257812	-41.109524
12532.324219	-43.071018
12575.390625	-43.863884
12618.457031	-41.057102
12661.523438	-39.390732
12704.589844	-39.880554
12747.656250	-41.995529
12790.722656	-44.418549
12833.789062	-45.096836
12876.855469	-45.755943
12919.921875	-47.490398
12962.988281	-48.295193
13006.054688	-45.627575
13049.121094	-40.274265
13092.187500	-37.883759
13135.253906	-37.810841
13178.320312	-39.177151
13221.386719	-40.996109
13264.453125	-41.824257
13307.519531	-42.170868
13350.585938	-42.790890
13393.652344	-44.817215
13436.718750	-44.344749
13479.785156	-42.116856
13522.851562	-40.935909
13565.917969	-41.319759
13608.984375	-41.520702
13652.050781	-41.551243
13695.117188	-41.767380
13738.183594	-40.902710
13781.250000	-40.799290
13824.316406	-40.911972
13867.382812	-41.881718
13910.449219	-42.075268
13953.515625	-39.109287
13996.582031	-37.658161
14039.648438	-37.860592
14082.714844	-39.113689
14125.781250	-39.094616
14168.847656	-37.573490
14211.914062	-37.890518
14254.980469	-39.917072
14298.046875	-42.586613
14341.113281	-46.543037
14384.179688	-46.704079
14427.246094	-44.397308
14470.312500	-43.472008
14513.378906	-43.152554
14556.445312	-42.985264
14599.511719	-41.139835
14642.578125	-38.848320
14685.644531	-37.422909
14728.710938	-37.565617
14771.777344	-38.886021
14814.843750	-38.785511
14857.910156	-37.258602
14900.976562	-36.437691
14944.042969	-36.330265
14987.109375	-36.839218
15030.175781	-38.189236
15073.242188	-38.965950
15116.308594	-37.716324
15159.375000	-37.306496
15202.441406	-38.344639
15245.507812	-38.858940
15288.574219	-39.528576
15331.640625	-39.623646
15374.707031	-40.236530
15417.773438	-41.305901
15460.839844	-41.461559
15503.906250	-40.220070
15546.972656	-40.604286
15590.039062	-43.244049
15633.105469	-46.819241
15676.171875	-47.112953
15719.238281	-42.713528
15762.304688	-40.646130
15805.371094	-40.353004
15848.437500	-40.057171
15891.503906	-38.989437
15934.570312	-37.255688
15977.636719	-36.398441
16020.703125	-36.607754
16063.769531	-37.481068
16106.835938	-38.088390
16149.902344	-37.026836
16192.968750	-36.485584
16236.035156	-36.708736
16279.101562	-37.935104
16322.167969	-39.362797
16365.234375	-39.834412
16408.300781	-38.266441
16451.367188	-36.551353
16494.433594	-35.876682
16537.500000	-36.003437
16580.566406	-36.622032
16623.632812	-36.499477
16666.699219	-35.806164
16709.765625	-36.421078
16752.832031	-37.467270
16795.898438	-40.169353
16838.964844	-42.810905
16882.031250	-42.846916
16925.097656	-40.517105
16968.164062	-38.853218
17011.230469	-37.203350
17054.296875	-36.412060
17097.363281	-34.954338
17140.429688	-33.811146
17183.496094	-34.060665
17226.562500	-34.989796
17269.628906	-36.920937
17312.695312	-38.919800
17355.761719	-40.605705
17398.828125	-39.616211
17441.894531	-39.447662
17484.960938	-39.850285
17528.027344	-41.426552
17571.093750	-42.575279
17614.160156	-42.828526
17657.226562	-39.554031
17700.292969	-38.305511
17743.359375	-38.415730
17786.425781	-39.063217
17829.492188	-40.111320
17872.558594	-41.338978
17915.625000	-40.714634
17958.691406	-40.935947
18001.757812	-40.624321
18044.824219	-38.488125
18087.890625	-36.430405
18130.957031	-35.445862
18174.023438	-36.023903
18217.089844	-37.638496
18260.156250	-38.651176
18303.222656	-38.276817
18346.289062	-37.864769
18389.355469	-38.534977
18432.421875	-41.024555
18475.488281	-44.673336
18518.554688	-43.793465
18561.621094	-40.373951
18604.687500	-40.015156
18647.753906	-41.663109
18690.820312	-42.844185
18733.886719	-43.408478
18776.953125	-42.375324
18820.019531	-42.387630
18863.085938	-42.134838
18906.152344	-40.094223
18949.218750	-39.770611
18992.285156	-39.078548
19035.351562	-39.628433
19078.417969	-42.861759
19121.484375	-45.798840
19164.550781	-44.804802
19207.617188	-44.666523
19250.683594	-44.526726
19293.750000	-42.805874
19336.816406	-42.868256
19379.882812	-43.241238
19422.949219	-42.771610
19466.015625	-44.261257
19509.082031	-47.999290
19552.148438	-44.708752
19595.214844	-42.086258
19638.281250	-42.164951
19681.347656	-43.306423
19724.414062	-43.296227
19767.480469	-41.641994
19810.546875	-40.081474
19853.613281	-39.325111
19896.679688	-40.261696
19939.746094	-41.327450
19982.812500	-41.326942
20025.878906	-40.659855
20068.945312	-40.460014
20112.011719	-40.419033
20155.078125	-41.437820
20198.144531	-43.551407
20241.210938	-45.407310
20284.277344	-45.923866
20327.343750	-45.939987
20370.410156	-45.468086
20413.476562	-44.670601
20456.542969	-44.745010
20499.609375	-45.117958
20542.675781	-47.264111
20585.742188	-50.260876
20628.808594	-49.943657
20671.875000	-47.154263
20714.941406	-45.666740
20758.007812	-45.571106
20801.074219	-44.909859
20844.140625	-44.582245
20887.207031	-44.587543
20930.273438	-44.963310
20973.339844	-45.809628
21016.406250	-42.689754
21059.472656	-40.005608
21102.539062	-39.420315
21145.605469	-41.373970
21188.671875	-44.763187
21231.738281	-44.914696
21274.804688	-43.991528
21317.871094	-44.329258
21360.937500	-45.348400
21404.003906	-46.273693
21447.070312	-46.381050
21490.136719	-46.247025
21533.203125	-47.130638
21576.269531	-49.367577
21619.335938	-49.787800
21662.402344	-48.834404
21705.468750	-49.923580
21748.535156	-49.810986
21791.601562	-45.844936
21834.667969	-44.250587
21877.734375	-44.289577
21920.800781	-44.859936
21963.867188	-45.834949
22006.933594	-46.954903
