周波数 (Hz)	レベル (dB)
43.066406	-28.774389
86.132812	-24.956190
129.199219	-25.757576
172.265625	-30.780233
215.332031	-37.685757
258.398438	-44.036488
301.464844	-44.054459
344.531250	-40.371254
387.597656	-39.002220
430.664062	-38.921249
473.730469	-41.179310
516.796875	-42.652733
559.863281	-43.367779
602.929688	-46.310638
645.996094	-49.465145
689.062500	-50.141190
732.128906	-49.060398
775.195312	-44.906708
818.261719	-42.239643
861.328125	-44.607571
904.394531	-45.705788
947.460938	-46.509384
990.527344	-48.188362
1033.593750	-46.858421
1076.660156	-46.504108
1119.726562	-46.870060
1162.792969	-50.525959
1205.859375	-47.709305
1248.925781	-45.187618
1291.992188	-43.552536
1335.058594	-44.351654
1378.125000	-47.064255
1421.191406	-48.503456
1464.257812	-45.877899
1507.324219	-45.277557
1550.390625	-46.714329
1593.457031	-49.990322
1636.523438	-47.578533
1679.589844	-45.737125
1722.656250	-45.721733
1765.722656	-47.919991
1808.789062	-48.279930
1851.855469	-47.460503
1894.921875	-50.176079
1937.988281	-50.659317
1981.054688	-46.949326
2024.121094	-46.301144
2067.187500	-47.621216
2110.253906	-47.710808
2153.320312	-47.290176
2196.386719	-48.960747
2239.453125	-49.707371
2282.519531	-49.256397
2325.585938	-49.688194
2368.652344	-50.070004
2411.718750	-47.322487
2454.785156	-45.774990
2497.851562	-45.485596
2540.917969	-46.293457
2583.984375	-48.041389
2627.050781	-49.576450
2670.117188	-49.758312
2713.183594	-49.797653
2756.250000	-51.978012
2799.316406	-52.657372
2842.382812	-49.754539
2885.449219	-50.392742
2928.515625	-50.880596
2971.582031	-47.419830
3014.648438	-47.815926
3057.714844	-48.171669
3100.781250	-46.716316
3143.847656	-45.095173
3186.914062	-46.319077
3229.980469	-46.816856
3273.046875	-44.199135
3316.113281	-42.363155
3359.179688	-41.349564
3402.246094	-43.444855
3445.312500	-45.230865
3488.378906	-46.518951
3531.445312	-48.660755
3574.511719	-47.373249
3617.578125	-46.386864
3660.644531	-46.628548
3703.710938	-48.271767
3746.777344	-46.496323
3789.843750	-48.311008
3832.910156	-44.925529
3875.976562	-42.628059
3919.042969	-42.669998
3962.109375	-42.021687
4005.175781	-42.264202
4048.242188	-43.977249
4091.308594	-42.489460
4134.375000	-41.895058
4177.441406	-42.052235
4220.507812	-41.989254
4263.574219	-43.116177
4306.640625	-45.275661
4349.707031	-44.934059
4392.773438	-46.504070
4435.839844	-49.723095
4478.906250	-48.687252
4521.972656	-48.615532
4565.039062	-47.347458
4608.105469	-46.684795
4651.171875	-46.132240
4694.238281	-46.545059
4737.304688	-48.677128
4780.371094	-47.313026
4823.437500	-46.490334
4866.503906	-45.352051
4909.570312	-43.895168
4952.636719	-45.340729
4995.703125	-49.086063
5038.769531	-52.100273
5081.835938	-53.090469
5124.902344	-53.345860
5167.968750	-51.948124
5211.035156	-49.905930
5254.101562	-49.356197
5297.167969	-48.387646
5340.234375	-48.420536
5383.300781	-49.257851
5426.367188	-51.390957
5469.433594	-52.855907
5512.500000	-52.625729
5555.566406	-52.502594
5598.632812	-51.919640
5641.699219	-53.055996
5684.765625	-55.162720
5727.832031	-53.465622
5770.898438	-52.262737
5813.964844	-52.379181
5857.031250	-52.228123
5900.097656	-52.816551
5943.164062	-53.440380
5986.230469	-53.695621
6029.296875	-53.408089
6072.363281	-52.098721
6115.429688	-53.150532
6158.496094	-53.608501
6201.562500	-52.651947
6244.628906	-53.135326
6287.695312	-50.344234
6330.761719	-49.205887
6373.828125	-48.854385
6416.894531	-48.068005
6459.960938	-46.294430
6503.027344	-47.354530
6546.093750	-50.516327
6589.160156	-51.966564
6632.226562	-51.899609
6675.292969	-52.965042
6718.359375	-54.615482
6761.425781	-57.158321
6804.492188	-58.571247
6847.558594	-57.164993
6890.625000	-56.689983
6933.691406	-54.796913
6976.757812	-53.378242
7019.824219	-52.863880
7062.890625	-53.501347
7105.957031	-53.371208
7149.023438	-55.030174
7192.089844	-54.304371
7235.156250	-50.901875
7278.222656	-49.321667
7321.289062	-48.976070
7364.355469	-50.560669
7407.421875	-52.410870
7450.488281	-52.011562
7493.554688	-51.659447
7536.621094	-51.309368
7579.687500	-50.526871
7622.753906	-50.887459
7665.820312	-52.886822
7708.886719	-54.471409
7751.953125	-52.920647
7795.019531	-51.063354
7838.085938	-49.534031
7881.152344	-49.424904
7924.218750	-52.004745
7967.285156	-52.431797
8010.351562	-51.934120
8053.417969	-52.171387
8096.484375	-51.172848
8139.550781	-49.953617
8182.617188	-50.024033
8225.683594	-50.199013
8268.750000	-53.431419
8311.816406	-52.595009
8354.882812	-52.071548
8397.949219	-49.039520
8441.015625	-48.779781
8484.082031	-49.763287
8527.148438	-50.035450
8570.214844	-53.408760
8613.281250	-53.509129
8656.347656	-53.869900
8699.414062	-50.256660
8742.480469	-49.699165
8785.546875	-49.582436
8828.613281	-49.050507
8871.679688	-48.887005
8914.746094	-49.984989
8957.812500	-52.437042
9000.878906	-51.918907
9043.945312	-50.918941
9087.011719	-50.401482
9130.078125	-47.432190
9173.144531	-47.439335
9216.210938	-47.345974
9259.277344	-48.914402
9302.343750	-49.279255
9345.410156	-48.327953
9388.476562	-49.247589
9431.542969	-48.507816
9474.609375	-46.112179
9517.675781	-47.097382
9560.742188	-47.189499
9603.808594	-47.668922
9646.875000	-44.640701
9689.941406	-43.208450
9733.007812	-44.617016
9776.074219	-46.651714
9819.140625	-45.759644
9862.207031	-44.509926
9905.273438	-46.045116
9948.339844	-47.001240
9991.406250	-49.084656
10034.472656	-50.360653
10077.539062	-51.604668
10120.605469	-49.282181
10163.671875	-47.980740
10206.738281	-48.391018
10249.804688	-47.762360
10292.871094	-48.116035
10335.937500	-46.431667
10379.003906	-46.005058
10422.070312	-44.867001
10465.136719	-44.073719
10508.203125	-44.775429
10551.269531	-47.276958
10594.335938	-49.419655
10637.402344	-49.486649
10680.468750	-48.714863
10723.535156	-48.655083
10766.601562	-52.408630
10809.667969	-55.133888
10852.734375	-48.735657
10895.800781	-46.354954
10938.867188	-44.468899
10981.933594	-44.567123
11025.000000	-47.245960
11068.066406	-50.320225
11111.132812	-48.644127
11154.199219	-47.487125
11197.265625	-47.270836
11240.332031	-46.873631
11283.398438	-46.003727
11326.464844	-46.167332
11369.531250	-45.241886
11412.597656	-43.274132
11455.664062	-43.339218
11498.730469	-45.776367
11541.796875	-47.849693
11584.863281	-46.179852
11627.929688	-45.022285
11670.996094	-45.177532
11714.062500	-45.789688
11757.128906	-46.034298
11800.195312	-47.991978
11843.261719	-48.418938
11886.328125	-47.998032
11929.394531	-49.378212
11972.460938	-50.273365
12015.527344	-49.314724
12058.593750	-46.459442
12101.660156	-42.484814
12144.726562	-41.449398
12187.792969	-41.694859
12230.859375	-42.451180
12273.925781	-44.550762
12316.992188	-47.462578
12360.058594	-45.725559
12403.125000	-42.732449
12446.191406	-41.164299
12489.257812	-40.970070
12532.324219	-41.806156
12575.390625	-44.172939
12618.457031	-46.748497
12661.523438	-47.893002
12704.589844	-49.668728
12747.656250	-49.032345
12790.722656	-45.641956
12833.789062	-44.200741
12876.855469	-42.963863
12919.921875	-41.485146
12962.988281	-41.603214
13006.054688	-40.207176
13049.121094	-39.267319
13092.187500	-39.009998
13135.253906	-38.467514
13178.320312	-38.503078
13221.386719	-39.669575
13264.453125	-41.708549
13307.519531	-43.169743
13350.585938	-43.081322
13393.652344	-42.256828
13436.718750	-41.763924
13479.785156	-43.198315
13522.851562	-44.834183
13565.917969	-44.252422
13608.984375	-43.140457
13652.050781	-44.212112
13695.117188	-43.364643
13738.183594	-42.985840
13781.250000	-44.045303
13824.316406	-45.743004
13867.382812	-48.157139
13910.449219	-47.667347
13953.515625	-44.745956
13996.582031	-42.456570
14039.648438	-41.575779
14082.714844	-42.144199
14125.781250	-41.423416
14168.847656	-41.470348
14211.914062	-42.002708
14254.980469	-41.772263
14298.046875	-44.493546
14341.113281	-44.772087
14384.179688	-43.829556
14427.246094	-41.724331
14470.312500	-40.839310
14513.378906	-41.148800
14556.445312	-37.515049
14599.511719	-34.903549
14642.578125	-34.795517
14685.644531	-37.203484
14728.710938	-40.735409
14771.777344	-42.637238
14814.843750	-41.868305
14857.910156	-42.653667
14900.976562	-44.605675
14944.042969	-44.199356
14987.109375	-41.667427
15030.175781	-39.826202
15073.242188	-40.465679
15116.308594	-39.576244
15159.375000	-38.562084
15202.441406	-38.810852
15245.507812	-40.825470
15288.574219	-40.996902
15331.640625	-41.539021
15374.707031	-41.830006
15417.773438	-41.555321
15460.839844	-41.243542
15503.906250	-39.989132
15546.972656	-40.098045
15590.039062	-42.734261
15633.105469	-43.958794
15676.171875	-41.520454
15719.238281	-37.899883
15762.304688	-37.105785
15805.371094	-38.468300
15848.437500	-38.754616
15891.503906	-38.376217
15934.570312	-37.819870
15977.636719	-35.851086
16020.703125	-35.694851
16063.769531	-38.408684
16106.835938	-38.005028
16149.902344	-35.294647
16192.968750	-35.055050
16236.035156	-35.753063
16279.101562	-37.374462
16322.167969	-37.867268
16365.234375	-38.358490
16408.300781	-39.449375
16451.367188	-39.682449
16494.433594	-39.351074
16537.500000	-39.989418
16580.566406	-40.009495
16623.632812	-39.278454
16666.699219	-41.355774
16709.765625	-41.416245
16752.832031	-40.325073
16795.898438	-40.199402
16838.964844	-39.288994
16882.031250	-40.080929
16925.097656	-40.367546
16968.164062	-39.995892
17011.230469	-40.592926
17054.296875	-39.863232
17097.363281	-40.461521
17140.429688	-40.402653
17183.496094	-39.353985
17226.562500	-38.579300
17269.628906	-39.598255
17312.695312	-40.034283
17355.761719	-39.352539
17398.828125	-38.702042
17441.894531	-38.284168
17484.960938	-36.772907
17528.027344	-36.634560
17571.093750	-37.385635
17614.160156	-38.347672
17657.226562	-37.270187
17700.292969	-37.260265
17743.359375	-37.619904
17786.425781	-38.654724
17829.492188	-38.018017
17872.558594	-38.068901
17915.625000	-39.363216
17958.691406	-39.120518
18001.757812	-36.998203
18044.824219	-36.440907
18087.890625	-37.163975
18130.957031	-36.861473
18174.023438	-36.111549
18217.089844	-35.903252
18260.156250	-35.709530
18303.222656	-36.768745
18346.289062	-38.867886
18389.355469	-40.717621
18432.421875	-39.530174
18475.488281	-42.793545
18518.554688	-43.954765
18561.621094	-42.287373
18604.687500	-42.889847
18647.753906	-43.875080
18690.820312	-43.177860
18733.886719	-41.216846
18776.953125	-38.033646
18820.019531	-36.577141
18863.085938	-38.342709
18906.152344	-42.499882
18949.218750	-40.548393
18992.285156	-39.353859
19035.351562	-38.238018
19078.417969	-36.590137
19121.484375	-36.220356
19164.550781	-38.115032
19207.617188	-40.943901
19250.683594	-43.292362
19293.750000	-43.801456
19336.816406	-44.567295
19379.882812	-43.489574
19422.949219	-41.592869
19466.015625	-42.117245
19509.082031	-42.933250
19552.148438	-42.021458
19595.214844	-41.509655
19638.281250	-42.084507
19681.347656	-40.432083
19724.414062	-37.445839
19767.480469	-36.678596
19810.546875	-37.343658
19853.613281	-38.955391
19896.679688	-42.132915
19939.746094	-44.667229
19982.812500	-45.060730
20025.878906	-44.092903
20068.945312	-44.640045
20112.011719	-45.621513
20155.078125	-42.989700
20198.144531	-41.788429
20241.210938	-42.965034
20284.277344	-44.831520
20327.343750	-45.382721
20370.410156	-46.050526
20413.476562	-46.703278
20456.542969	-46.132801
20499.609375	-45.212631
20542.675781	-44.310772
20585.742188	-43.906311
20628.808594	-45.020508
20671.875000	-46.106392
20714.941406	-43.352936
20758.007812	-42.321560
20801.074219	-42.060959
20844.140625	-41.936821
20887.207031	-42.252213
20930.273438	-43.550034
20973.339844	-47.218437
21016.406250	-47.617851
21059.472656	-46.899483
21102.539062	-46.561245
21145.605469	-45.837112
21188.671875	-44.854080
21231.738281	-45.032833
21274.804688	-46.507984
21317.871094	-47.562771
21360.937500	-46.815639
21404.003906	-45.372150
21447.070312	-44.014565
21490.136719	-44.726658
21533.203125	-47.781864
21576.269531	-49.888550
21619.335938	-50.453838
21662.402344	-50.362755
21705.468750	-48.904255
21748.535156	-46.960381
21791.601562	-46.452133
21834.667969	-47.998177
21877.734375	-47.793842
21920.800781	-46.982388
21963.867188	-45.766533
22006.933594	-45.435852
