周波数 (Hz)	レベル (dB)
43.066406	-29.671911
86.132812	-26.946415
129.199219	-29.967562
172.265625	-34.856281
215.332031	-36.378601
258.398438	-42.927776
301.464844	-43.486774
344.531250	-41.993370
387.597656	-43.043453
430.664062	-44.578556
473.730469	-42.628361
516.796875	-39.319862
559.863281	-41.727978
602.929688	-46.631599
645.996094	-45.584675
689.062500	-47.357449
732.128906	-49.062054
775.195312	-47.592350
818.261719	-43.452961
861.328125	-42.824516
904.394531	-44.375118
947.460938	-46.005646
990.527344	-48.664688
1033.593750	-49.662125
1076.660156	-47.740059
1119.726562	-45.455055
1162.792969	-47.206684
1205.859375	-49.683212
1248.925781	-47.445225
1291.992188	-45.100197
1335.058594	-43.078842
1378.125000	-43.325531
1421.191406	-44.465630
1464.257812	-47.061184
1507.324219	-49.383297
1550.390625	-45.382515
1593.457031	-43.779873
1636.523438	-44.578644
1679.589844	-46.456135
1722.656250	-47.914436
1765.722656	-45.754383
1808.789062	-45.990143
1851.855469	-47.173969
1894.921875	-46.326981
1937.988281	-45.090584
1981.054688	-44.048813
2024.121094	-44.778122
2067.187500	-48.037430
2110.253906	-49.186363
2153.320312	-49.078442
2196.386719	-49.107471
2239.453125	-49.497704
2282.519531	-47.593639
2325.585938	-45.846622
2368.652344	-45.463135
2411.718750	-47.404083
2454.785156	-50.946056
2497.851562	-51.015392
2540.917969	-48.650196
2583.984375	-48.036598
2627.050781	-47.464890
2670.117188	-47.751423
2713.183594	-46.388733
2756.250000	-46.788074
2799.316406	-51.736809
2842.382812	-54.776020
2885.449219	-53.592949
2928.515625	-48.319595
2971.582031	-43.642006
3014.648438	-41.403225
3057.714844	-41.483307
3100.781250	-42.965752
3143.847656	-42.552399
3186.914062	-41.435612
3229.980469	-40.700050
3273.046875	-40.399868
3316.113281	-39.717762
3359.179688	-38.824387
3402.246094	-39.188484
3445.312500	-40.669239
3488.378906	-43.331547
3531.445312	-45.667877
3574.511719	-42.275745
3617.578125	-41.362732
3660.644531	-42.902344
3703.710938	-45.117287
3746.777344	-43.261337
3789.843750	-41.499905
3832.910156	-42.782417
3875.976562	-44.799755
3919.042969	-44.195755
3962.109375	-42.515194
4005.175781	-41.656807
4048.242188	-41.749100
4091.308594	-40.928379
4134.375000	-40.245457
4177.441406	-41.669884
4220.507812	-45.046970
4263.574219	-51.352367
4306.640625	-52.630333
4349.707031	-50.589420
4392.773438	-49.503590
4435.839844	-47.904522
4478.906250	-46.859444
4521.972656	-47.294285
4565.039062	-46.912197
4608.105469	-47.687271
4651.171875	-47.321831
4694.238281	-48.898201
4737.304688	-53.091259
4780.371094	-52.217575
4823.437500	-50.978485
4866.503906	-49.520962
4909.570312	-47.860741
4952.636719	-48.432640
4995.703125	-51.805473
5038.769531	-49.593300
5081.835938	-47.273693
5124.902344	-47.311962
5167.968750	-49.453522
5211.035156	-52.563202
5254.101562	-51.232414
5297.167969	-49.279896
5340.234375	-49.089371
5383.300781	-51.551807
5426.367188	-52.443436
5469.433594	-49.293522
5512.500000	-47.362484
5555.566406	-47.465351
5598.632812	-50.442532
5641.699219	-54.805176
5684.765625	-52.536385
5727.832031	-52.595425
5770.898438	-54.046913
5813.964844	-53.964260
5857.031250	-55.405754
5900.097656	-55.526333
5943.164062	-52.881550
5986.230469	-52.246117
6029.296875	-49.878433
6072.363281	-48.285515
6115.429688	-49.843487
6158.496094	-49.211761
6201.562500	-47.836891
6244.628906	-46.402798
6287.695312	-45.438164
6330.761719	-46.975769
6373.828125	-50.355034
6416.894531	-50.754478
6459.960938	-50.012665
6503.027344	-50.178040
6546.093750	-50.184139
6589.160156	-50.376038
6632.226562	-48.750023
6675.292969	-46.843739
6718.359375	-47.256008
6761.425781	-48.343884
6804.492188	-48.855015
6847.558594	-49.712627
6890.625000	-49.619545
6933.691406	-48.345329
6976.757812	-47.399765
7019.824219	-47.133820
7062.890625	-47.052990
7105.957031	-47.353748
7149.023438	-46.060368
7192.089844	-45.069820
7235.156250	-44.512619
7278.222656	-44.456093
7321.289062	-46.076736
7364.355469	-48.088688
7407.421875	-48.631073
7450.488281	-49.159378
7493.554688	-50.918453
7536.621094	-51.996101
7579.687500	-50.795311
7622.753906	-48.253670
7665.820312	-49.454391
7708.886719	-53.055069
7751.953125	-55.908329
7795.019531	-52.685413
7838.085938	-50.793770
7881.152344	-51.455257
7924.218750	-52.384792
7967.285156	-52.941357
8010.351562	-51.583252
8053.417969	-49.163528
8096.484375	-48.493145
8139.550781	-50.008404
8182.617188	-49.676601
8225.683594	-48.649494
8268.750000	-49.926502
8311.816406	-53.011723
8354.882812	-51.165684
8397.949219	-47.837605
8441.015625	-47.770699
8484.082031	-49.207458
8527.148438	-47.305931
8570.214844	-44.504452
8613.281250	-43.000412
8656.347656	-42.608742
8699.414062	-44.712910
8742.480469	-46.754040
8785.546875	-46.965469
8828.613281	-47.362251
8871.679688	-46.339550
8914.746094	-46.308559
8957.812500	-47.071239
9000.878906	-45.271782
9043.945312	-43.226337
9087.011719	-42.953472
9130.078125	-44.719692
9173.144531	-49.021107
9216.210938	-53.450874
9259.277344	-49.918392
9302.343750	-47.593666
9345.410156	-47.359444
9388.476562	-52.621269
9431.542969	-56.178955
9474.609375	-51.534348
9517.675781	-51.040558
9560.742188	-52.384289
9603.808594	-51.086952
9646.875000	-47.827282
9689.941406	-46.506538
9733.007812	-46.625702
9776.074219	-45.865013
9819.140625	-46.677719
9862.207031	-49.412251
9905.273438	-51.237411
9948.339844	-48.421337
9991.406250	-45.721256
10034.472656	-44.826412
10077.539062	-46.437725
10120.605469	-48.977249
10163.671875	-49.152187
10206.738281	-49.491901
10249.804688	-50.445248
10292.871094	-48.905197
10335.937500	-48.471489
10379.003906	-48.748119
10422.070312	-48.402596
10465.136719	-48.560333
10508.203125	-48.976562
10551.269531	-47.032810
10594.335938	-44.924229
10637.402344	-45.817154
10680.468750	-47.996738
10723.535156	-47.818005
10766.601562	-47.788383
10809.667969	-48.537003
10852.734375	-48.692898
10895.800781	-46.494980
10938.867188	-45.573170
10981.933594	-44.784180
11025.000000	-45.735432
11068.066406	-45.005432
11111.132812	-46.208591
11154.199219	-49.302860
11197.265625	-48.880604
11240.332031	-45.388432
11283.398438	-44.268543
11326.464844	-44.343197
11369.531250	-41.325649
11412.597656	-38.480537
11455.664062	-38.240166
11498.730469	-39.866394
11541.796875	-41.180740
11584.863281	-41.875217
11627.929688	-41.922070
11670.996094	-44.894550
11714.062500	-47.725681
11757.128906	-47.654301
11800.195312	-43.913132
11843.261719	-43.199196
11886.328125	-45.755592
11929.394531	-48.911655
11972.460938	-48.486771
12015.527344	-45.867027
12058.593750	-46.020367
12101.660156	-48.081806
12144.726562	-47.463951
12187.792969	-45.264381
12230.859375	-43.440571
12273.925781	-41.951351
12316.992188	-40.688251
12360.058594	-38.626148
12403.125000	-37.990604
12446.191406	-38.759945
12489.257812	-39.402737
12532.324219	-40.127609
12575.390625	-40.747356
12618.457031	-42.727924
12661.523438	-44.206203
12704.589844	-44.041382
12747.656250	-46.374950
12790.722656	-45.631195
12833.789062	-44.755695
12876.855469	-43.146122
12919.921875	-41.869743
12962.988281	-42.553257
13006.054688	-44.175388
13049.121094	-43.269405
13092.187500	-41.045193
13135.253906	-42.904221
13178.320312	-43.854172
13221.386719	-41.575836
13264.453125	-40.855541
13307.519531	-42.072296
13350.585938	-44.098969
13393.652344	-42.054302
13436.718750	-40.599789
13479.785156	-41.351742
13522.851562	-42.374794
13565.917969	-42.621197
13608.984375	-42.723202
13652.050781	-45.671432
13695.117188	-45.451084
13738.183594	-41.457321
13781.250000	-41.727219
13824.316406	-41.815872
13867.382812	-41.080826
13910.449219	-41.920818
13953.515625	-41.199123
13996.582031	-40.340725
14039.648438	-40.975716
14082.714844	-44.112637
14125.781250	-45.800438
14168.847656	-45.910725
14211.914062	-48.474136
14254.980469	-46.080494
14298.046875	-40.482571
14341.113281	-38.416012
14384.179688	-39.414547
14427.246094	-41.246258
14470.312500	-42.904285
14513.378906	-40.506344
14556.445312	-37.437119
14599.511719	-38.599308
14642.578125	-43.787369
14685.644531	-40.691315
14728.710938	-38.935963
14771.777344	-40.618546
14814.843750	-42.035866
14857.910156	-40.693089
14900.976562	-38.565212
14944.042969	-39.138241
14987.109375	-41.025261
15030.175781	-38.967876
15073.242188	-37.990585
15116.308594	-38.833351
15159.375000	-39.205990
15202.441406	-38.145527
15245.507812	-38.253601
15288.574219	-39.383625
15331.640625	-38.659374
15374.707031	-37.865601
15417.773438	-39.310120
15460.839844	-43.736137
15503.906250	-44.547211
15546.972656	-39.763210
15590.039062	-35.901089
15633.105469	-35.199409
15676.171875	-36.365879
15719.238281	-37.269909
15762.304688	-36.633942
15805.371094	-36.691696
15848.437500	-36.710201
15891.503906	-38.204109
15934.570312	-38.559414
15977.636719	-37.896370
16020.703125	-40.608685
16063.769531	-43.953487
16106.835938	-42.889751
16149.902344	-42.049496
16192.968750	-45.029335
16236.035156	-47.341450
16279.101562	-42.296619
16322.167969	-39.146938
16365.234375	-38.547508
16408.300781	-38.785770
16451.367188	-37.628365
16494.433594	-37.282372
16537.500000	-38.394604
16580.566406	-38.677326
16623.632812	-38.914490
16666.699219	-40.812592
16709.765625	-38.687283
16752.832031	-36.278255
16795.898438	-36.043839
16838.964844	-36.558945
16882.031250	-37.468739
16925.097656	-37.247833
16968.164062	-37.978336
17011.230469	-40.739960
17054.296875	-42.880150
17097.363281	-42.324970
17140.429688	-43.134670
17183.496094	-40.596130
17226.562500	-38.812767
17269.628906	-37.695232
17312.695312	-36.649681
17355.761719	-36.637295
17398.828125	-36.750931
17441.894531	-36.172173
17484.960938	-36.806278
17528.027344	-38.589085
17571.093750	-38.758175
17614.160156	-38.157047
17657.226562	-38.124519
17700.292969	-39.896858
17743.359375	-38.376163
17786.425781	-37.842186
17829.492188	-39.252968
17872.558594	-39.617424
17915.625000	-37.667469
17958.691406	-36.473400
18001.757812	-36.938465
18044.824219	-38.667206
18087.890625	-40.744095
18130.957031	-43.249939
18174.023438	-43.444557
18217.089844	-43.123425
18260.156250	-41.697933
18303.222656	-39.081799
18346.289062	-39.778385
18389.355469	-40.317017
18432.421875	-37.322456
18475.488281	-38.818012
18518.554688	-38.646717
18561.621094	-36.261074
18604.687500	-36.037354
18647.753906	-38.267693
18690.820312	-42.375214
18733.886719	-39.530266
18776.953125	-37.130344
18820.019531	-36.696667
18863.085938	-36.395660
18906.152344	-37.046734
18949.218750	-39.494247
18992.285156	-45.564987
19035.351562	-46.998714
19078.417969	-44.059319
19121.484375	-42.375698
19164.550781	-40.926212
19207.617188	-40.114220
19250.683594	-37.554821
19293.750000	-36.724201
19336.816406	-39.059174
19379.882812	-41.702843
19422.949219	-41.098301
19466.015625	-41.188740
19509.082031	-43.104073
19552.148438	-44.802471
19595.214844	-41.695648
19638.281250	-39.994633
19681.347656	-40.378887
19724.414062	-41.500710
19767.480469	-43.659531
19810.546875	-40.985344
19853.613281	-39.261154
19896.679688	-39.695824
19939.746094	-40.635098
19982.812500	-39.417759
20025.878906	-38.433273
20068.945312	-39.391193
20112.011719	-42.095955
20155.078125	-45.706593
20198.144531	-46.788700
20241.210938	-43.324787
20284.277344	-40.517067
20327.343750	-40.173794
20370.410156	-41.519630
20413.476562	-43.215637
20456.542969	-42.122871
20499.609375	-40.204208
20542.675781	-38.817818
20585.742188	-39.489548
20628.808594	-41.381470
20671.875000	-41.263889
20714.941406	-40.015007
20758.007812	-38.662338
20801.074219	-38.512516
20844.140625	-40.108047
20887.207031	-42.341175
20930.273438	-43.377705
20973.339844	-42.686523
21016.406250	-44.675575
21059.472656	-48.490150
21102.539062	-49.445591
21145.605469	-47.604668
21188.671875	-45.787979
21231.738281	-46.573242
21274.804688	-49.006836
21317.871094	-48.739830
21360.937500	-48.309406
21404.003906	-46.255833
21447.070312	-45.003025
21490.136719	-47.590740
21533.203125	-49.534920
21576.269531	-49.765831
21619.335938	-49.469280
21662.402344	-47.917278
21705.468750	-46.047970
21748.535156	-45.258175
21791.601562	-46.185715
21834.667969	-47.489059
21877.734375	-46.941956
21920.800781	-46.184803
21963.867188	-47.766632
22006.933594	-49.363792
