周波数 (Hz)	レベル (dB)
43.066406	-27.726929
86.132812	-26.992809
129.199219	-29.252132
172.265625	-33.613533
215.332031	-36.958729
258.398438	-43.599049
301.464844	-41.653122
344.531250	-40.804752
387.597656	-45.572620
430.664062	-43.804371
473.730469	-42.441765
516.796875	-39.735977
559.863281	-41.489063
602.929688	-45.398525
645.996094	-42.155724
689.062500	-43.050865
732.128906	-46.517811
775.195312	-45.674374
818.261719	-42.556858
861.328125	-42.741066
904.394531	-43.628506
947.460938	-43.997383
990.527344	-44.730389
1033.593750	-48.414795
1076.660156	-47.591042
1119.726562	-45.079247
1162.792969	-46.661697
1205.859375	-48.798031
1248.925781	-47.007431
1291.992188	-47.377491
1335.058594	-48.441460
1378.125000	-50.577507
1421.191406	-47.059086
1464.257812	-45.194023
1507.324219	-45.110477
1550.390625	-45.258835
1593.457031	-45.290680
1636.523438	-45.525909
1679.589844	-43.955952
1722.656250	-42.305237
1765.722656	-42.451771
1808.789062	-42.422081
1851.855469	-42.778584
1894.921875	-43.968613
1937.988281	-44.887817
1981.054688	-46.441563
2024.121094	-46.529594
2067.187500	-44.625298
2110.253906	-43.947224
2153.320312	-45.025429
2196.386719	-47.597889
2239.453125	-48.064095
2282.519531	-45.082142
2325.585938	-43.639393
2368.652344	-44.177284
2411.718750	-46.186226
2454.785156	-48.100967
2497.851562	-47.513420
2540.917969	-45.040558
2583.984375	-43.321484
2627.050781	-44.050507
2670.117188	-46.456490
2713.183594	-46.582527
2756.250000	-44.732117
2799.316406	-45.845627
2842.382812	-46.274513
2885.449219	-44.642406
2928.515625	-43.382545
2971.582031	-42.446716
3014.648438	-42.463505
3057.714844	-41.867908
3100.781250	-43.027897
3143.847656	-44.445381
3186.914062	-44.743290
3229.980469	-44.222691
3273.046875	-42.950912
3316.113281	-43.136589
3359.179688	-45.088474
3402.246094	-45.741013
3445.312500	-42.986988
3488.378906	-42.250450
3531.445312	-43.281857
3574.511719	-45.897068
3617.578125	-49.136822
3660.644531	-52.677814
3703.710938	-48.170528
3746.777344	-45.605919
3789.843750	-44.479343
3832.910156	-43.044781
3875.976562	-42.411530
3919.042969	-42.790722
3962.109375	-43.367119
4005.175781	-44.388535
4048.242188	-45.719975
4091.308594	-46.245522
4134.375000	-46.922531
4177.441406	-47.178875
4220.507812	-48.431355
4263.574219	-47.089794
4306.640625	-44.343502
4349.707031	-43.194901
4392.773438	-44.022427
4435.839844	-45.409733
4478.906250	-46.960316
4521.972656	-46.875118
4565.039062	-47.087151
4608.105469	-49.857040
4651.171875	-52.669495
4694.238281	-51.987072
4737.304688	-50.836040
4780.371094	-50.057823
4823.437500	-49.535240
4866.503906	-48.808952
4909.570312	-49.238022
4952.636719	-48.759972
4995.703125	-48.713673
5038.769531	-49.832005
5081.835938	-51.594120
5124.902344	-51.941021
5167.968750	-50.769119
5211.035156	-48.985783
5254.101562	-48.595078
5297.167969	-51.055050
5340.234375	-53.790031
5383.300781	-52.871651
5426.367188	-52.367886
5469.433594	-51.840900
5512.500000	-52.914806
5555.566406	-55.213234
5598.632812	-57.669487
5641.699219	-56.050087
5684.765625	-51.350628
5727.832031	-48.583645
5770.898438	-47.511288
5813.964844	-47.231621
5857.031250	-48.996647
5900.097656	-49.696693
5943.164062	-51.867493
5986.230469	-53.410294
6029.296875	-51.663399
6072.363281	-50.615383
6115.429688	-50.058937
6158.496094	-50.063740
6201.562500	-49.741627
6244.628906	-48.167046
6287.695312	-47.712433
6330.761719	-50.704483
6373.828125	-51.194981
6416.894531	-47.991093
6459.960938	-48.619076
6503.027344	-50.522793
6546.093750	-49.596416
6589.160156	-49.286102
6632.226562	-50.994076
6675.292969	-51.001251
6718.359375	-49.987072
6761.425781	-49.048710
6804.492188	-49.691303
6847.558594	-49.739128
6890.625000	-47.897419
6933.691406	-46.448586
6976.757812	-46.243645
7019.824219	-46.971992
7062.890625	-46.804218
7105.957031	-45.654613
7149.023438	-45.427776
7192.089844	-46.849037
7235.156250	-48.877205
7278.222656	-49.985912
7321.289062	-48.614048
7364.355469	-47.674046
7407.421875	-47.950649
7450.488281	-48.449924
7493.554688	-49.345184
7536.621094	-50.690323
7579.687500	-48.940636
7622.753906	-47.463787
7665.820312	-47.874123
7708.886719	-51.861485
7751.953125	-51.863811
7795.019531	-48.907669
7838.085938	-46.578594
7881.152344	-46.480854
7924.218750	-46.757561
7967.285156	-46.933765
8010.351562	-47.136192
8053.417969	-48.100567
8096.484375	-49.667835
8139.550781	-50.962566
8182.617188	-51.239487
8225.683594	-51.537971
8268.750000	-51.428410
8311.816406	-50.239346
8354.882812	-51.325333
8397.949219	-51.717232
8441.015625	-50.563583
8484.082031	-50.283108
8527.148438	-49.367191
8570.214844	-49.003487
8613.281250	-50.089664
8656.347656	-49.418652
8699.414062	-48.030907
8742.480469	-48.240803
8785.546875	-50.031822
8828.613281	-50.402061
8871.679688	-49.157425
8914.746094	-49.700077
8957.812500	-48.441795
9000.878906	-46.662552
9043.945312	-46.072479
9087.011719	-48.388046
9130.078125	-47.546425
9173.144531	-47.509121
9216.210938	-51.062248
9259.277344	-51.452915
9302.343750	-50.370090
9345.410156	-50.623692
9388.476562	-53.942154
9431.542969	-49.669655
9474.609375	-47.906658
9517.675781	-48.332359
9560.742188	-48.710579
9603.808594	-50.162186
9646.875000	-51.175293
9689.941406	-46.016827
9733.007812	-44.341110
9776.074219	-46.477024
9819.140625	-50.455967
9862.207031	-53.133076
9905.273438	-52.714943
9948.339844	-51.262119
9991.406250	-49.801773
10034.472656	-49.547844
10077.539062	-48.370087
10120.605469	-47.730495
10163.671875	-48.556747
10206.738281	-49.716801
10249.804688	-47.438400
10292.871094	-45.036526
10335.937500	-44.299965
10379.003906	-45.213577
10422.070312	-47.268932
10465.136719	-48.241386
10508.203125	-48.447990
10551.269531	-49.183060
10594.335938	-47.411175
10637.402344	-45.982971
10680.468750	-46.053322
10723.535156	-45.877003
10766.601562	-45.383911
10809.667969	-45.913891
10852.734375	-47.674534
10895.800781	-46.651783
10938.867188	-43.062996
10981.933594	-42.627110
11025.000000	-45.456421
11068.066406	-46.116791
11111.132812	-46.446960
11154.199219	-44.883678
11197.265625	-41.781067
11240.332031	-40.885281
11283.398438	-42.629990
11326.464844	-45.294571
11369.531250	-46.430141
11412.597656	-43.605705
11455.664062	-42.920925
11498.730469	-44.492859
11541.796875	-45.711674
11584.863281	-44.527660
11627.929688	-44.264057
11670.996094	-44.069389
11714.062500	-44.914726
11757.128906	-44.340298
11800.195312	-43.706753
11843.261719	-43.131256
11886.328125	-42.535614
11929.394531	-43.101791
11972.460938	-44.809513
12015.527344	-47.111462
12058.593750	-47.610706
12101.660156	-47.853340
12144.726562	-47.130428
12187.792969	-46.129009
12230.859375	-48.049816
12273.925781	-47.487484
12316.992188	-43.663891
12360.058594	-41.035854
12403.125000	-41.942013
12446.191406	-43.473560
12489.257812	-42.301056
12532.324219	-40.683270
12575.390625	-41.171623
12618.457031	-44.902691
12661.523438	-46.254841
12704.589844	-46.763733
12747.656250	-46.417519
12790.722656	-43.025852
12833.789062	-41.991352
12876.855469	-43.581532
12919.921875	-44.910637
12962.988281	-44.802921
13006.054688	-43.769226
13049.121094	-44.116192
13092.187500	-45.295116
13135.253906	-45.010662
13178.320312	-43.037735
13221.386719	-40.790909
13264.453125	-41.096428
13307.519531	-44.510384
13350.585938	-44.574432
13393.652344	-41.374737
13436.718750	-39.739105
13479.785156	-41.355751
13522.851562	-43.839588
13565.917969	-41.881927
13608.984375	-40.556477
13652.050781	-41.447819
13695.117188	-41.762611
13738.183594	-41.061871
13781.250000	-42.327145
13824.316406	-45.598839
13867.382812	-45.726215
13910.449219	-43.973106
13953.515625	-43.787716
13996.582031	-45.065590
14039.648438	-46.348072
14082.714844	-46.849613
14125.781250	-45.748138
14168.847656	-44.627708
14211.914062	-42.275543
14254.980469	-40.733986
14298.046875	-41.766155
14341.113281	-43.058434
14384.179688	-42.874779
14427.246094	-41.927521
14470.312500	-41.502598
14513.378906	-42.955425
14556.445312	-42.441364
14599.511719	-40.551414
14642.578125	-40.497654
14685.644531	-42.474926
14728.710938	-43.683117
14771.777344	-43.884132
14814.843750	-42.704678
14857.910156	-42.905289
14900.976562	-41.175095
14944.042969	-40.203449
14987.109375	-44.353214
15030.175781	-45.530582
15073.242188	-42.918030
15116.308594	-44.489849
15159.375000	-43.444038
15202.441406	-39.642883
15245.507812	-37.702686
15288.574219	-38.555172
15331.640625	-40.719910
15374.707031	-39.628391
15417.773438	-38.992207
15460.839844	-40.368771
15503.906250	-41.373192
15546.972656	-40.224205
15590.039062	-39.715149
15633.105469	-42.685658
15676.171875	-42.937397
15719.238281	-41.908291
15762.304688	-43.777840
15805.371094	-43.246143
15848.437500	-39.865147
15891.503906	-39.545124
15934.570312	-40.167824
15977.636719	-39.846962
16020.703125	-42.270729
16063.769531	-42.833958
16106.835938	-40.443016
16149.902344	-39.338654
16192.968750	-40.013371
16236.035156	-41.311226
16279.101562	-40.762352
16322.167969	-37.895729
16365.234375	-36.921440
16408.300781	-38.890865
16451.367188	-41.870567
16494.433594	-40.935539
16537.500000	-40.093700
16580.566406	-39.462967
16623.632812	-39.217674
16666.699219	-40.337280
16709.765625	-40.888836
16752.832031	-39.533161
16795.898438	-38.168320
16838.964844	-38.584198
16882.031250	-40.661186
16925.097656	-41.990723
16968.164062	-43.049789
17011.230469	-40.879814
17054.296875	-36.450741
17097.363281	-35.264133
17140.429688	-36.101517
17183.496094	-36.243587
17226.562500	-35.765690
17269.628906	-36.274071
17312.695312	-38.755451
17355.761719	-41.347675
17398.828125	-41.214733
17441.894531	-40.496872
17484.960938	-40.913822
17528.027344	-42.294197
17571.093750	-42.552696
17614.160156	-41.773029
17657.226562	-40.269016
17700.292969	-39.310741
17743.359375	-38.225250
17786.425781	-37.445915
17829.492188	-37.905308
17872.558594	-38.487137
17915.625000	-38.367012
17958.691406	-37.485962
18001.757812	-38.394566
18044.824219	-42.378170
18087.890625	-42.258457
18130.957031	-40.742672
18174.023438	-39.334801
18217.089844	-37.575104
18260.156250	-38.263000
18303.222656	-38.927971
18346.289062	-37.970909
18389.355469	-37.421696
18432.421875	-38.603638
18475.488281	-40.495247
18518.554688	-39.624920
18561.621094	-38.424637
18604.687500	-39.724510
18647.753906	-41.398224
18690.820312	-40.567646
18733.886719	-42.236263
18776.953125	-42.620060
18820.019531	-42.420994
18863.085938	-42.738636
18906.152344	-40.313709
18949.218750	-39.288708
18992.285156	-39.352798
19035.351562	-38.958008
19078.417969	-37.001522
19121.484375	-36.222694
19164.550781	-36.651482
19207.617188	-37.615536
19250.683594	-37.477043
19293.750000	-37.087425
19336.816406	-38.488045
19379.882812	-39.732834
19422.949219	-39.931454
19466.015625	-39.507767
19509.082031	-39.005314
19552.148438	-39.932571
19595.214844	-42.155556
19638.281250	-43.192783
19681.347656	-41.080505
19724.414062	-38.462151
19767.480469	-40.091522
19810.546875	-48.308670
19853.613281	-43.622536
19896.679688	-39.495415
19939.746094	-38.505878
19982.812500	-40.688538
20025.878906	-44.199291
20068.945312	-42.556919
20112.011719	-40.045143
20155.078125	-38.989128
20198.144531	-40.431591
20241.210938	-42.761940
20284.277344	-42.259960
20327.343750	-42.058323
20370.410156	-44.423916
20413.476562	-46.518345
20456.542969	-45.334538
20499.609375	-44.225101
20542.675781	-43.254692
20585.742188	-46.572449
20628.808594	-48.555866
20671.875000	-43.326988
20714.941406	-43.049553
20758.007812	-46.950474
20801.074219	-47.305664
20844.140625	-47.002110
20887.207031	-49.047260
20930.273438	-47.003330
20973.339844	-45.114449
21016.406250	-45.708221
21059.472656	-47.390152
21102.539062	-46.494946
21145.605469	-44.494236
21188.671875	-44.484200
21231.738281	-43.970348
21274.804688	-44.396252
21317.871094	-46.436359
21360.937500	-47.818428
21404.003906	-48.706413
21447.070312	-49.090740
21490.136719	-48.686256
21533.203125	-48.195400
21576.269531	-49.442825
21619.335938	-49.725506
21662.402344	-47.262478
21705.468750	-47.506111
21748.535156	-47.775158
21791.601562	-46.678234
21834.667969	-46.346291
21877.734375	-47.622982
21920.800781	-47.971733
21963.867188	-46.680531
22006.933594	-45.823872
