周波数 (Hz)	レベル (dB)
43.066406	-35.178627
86.132812	-36.523067
129.199219	-38.297607
172.265625	-45.376316
215.332031	-49.546062
258.398438	-55.634304
301.464844	-57.723198
344.531250	-56.870007
387.597656	-54.550140
430.664062	-54.032192
473.730469	-57.657162
516.796875	-61.014194
559.863281	-62.165916
602.929688	-64.299507
645.996094	-66.718666
689.062500	-67.932739
732.128906	-65.707405
775.195312	-67.068176
818.261719	-69.136436
861.328125	-68.997375
904.394531	-67.722168
947.460938	-66.729721
990.527344	-66.372299
1033.593750	-64.789711
1076.660156	-65.740562
1119.726562	-64.790398
1162.792969	-66.289825
1205.859375	-69.708527
1248.925781	-67.241737
1291.992188	-64.647537
1335.058594	-61.778278
1378.125000	-63.802937
1421.191406	-68.374680
1464.257812	-68.386757
1507.324219	-66.809807
1550.390625	-66.977516
1593.457031	-69.282364
1636.523438	-66.060043
1679.589844	-63.292343
1722.656250	-63.075413
1765.722656	-64.840446
1808.789062	-68.457520
1851.855469	-67.012665
1894.921875	-66.188889
1937.988281	-63.545506
1981.054688	-62.892155
2024.121094	-63.393234
2067.187500	-63.581711
2110.253906	-63.826733
2153.320312	-63.133049
2196.386719	-62.687679
2239.453125	-62.502712
2282.519531	-60.715355
2325.585938	-60.433971
2368.652344	-59.780804
2411.718750	-58.389500
2454.785156	-61.097832
2497.851562	-63.972851
2540.917969	-66.984985
2583.984375	-65.735657
2627.050781	-66.046494
2670.117188	-67.955139
2713.183594	-65.123466
2756.250000	-64.252151
2799.316406	-65.536514
2842.382812	-65.417198
2885.449219	-63.978825
2928.515625	-66.182030
2971.582031	-65.605080
3014.648438	-62.850937
3057.714844	-60.685902
3100.781250	-61.130733
3143.847656	-60.235081
3186.914062	-58.565788
3229.980469	-59.570473
3273.046875	-62.727303
3316.113281	-62.158649
3359.179688	-62.200989
3402.246094	-61.634182
3445.312500	-62.137020
3488.378906	-62.413349
3531.445312	-62.043346
3574.511719	-62.274364
3617.578125	-62.359612
3660.644531	-60.747398
3703.710938	-61.227585
3746.777344	-60.793037
3789.843750	-60.821003
3832.910156	-62.045654
3875.976562	-62.823498
3919.042969	-63.486423
3962.109375	-62.760933
4005.175781	-63.181427
4048.242188	-66.006767
4091.308594	-65.023354
4134.375000	-64.708839
4177.441406	-65.083427
4220.507812	-64.939468
4263.574219	-65.567299
4306.640625	-64.308853
4349.707031	-63.432617
4392.773438	-64.476105
4435.839844	-65.288757
4478.906250	-64.325340
4521.972656	-61.993740
4565.039062	-62.265400
4608.105469	-61.968079
4651.171875	-63.270264
4694.238281	-63.436771
4737.304688	-64.936508
4780.371094	-64.101089
4823.437500	-63.534283
4866.503906	-62.283348
4909.570312	-63.548706
4952.636719	-63.275593
4995.703125	-61.917862
5038.769531	-63.753426
5081.835938	-65.348656
5124.902344	-64.726662
5167.968750	-63.600258
5211.035156	-63.519417
5254.101562	-63.288177
5297.167969	-62.650333
5340.234375	-63.700806
5383.300781	-65.553795
5426.367188	-66.680580
5469.433594	-65.060402
5512.500000	-64.636192
5555.566406	-66.694107
5598.632812	-65.415474
5641.699219	-64.237381
5684.765625	-61.772507
5727.832031	-62.231995
5770.898438	-63.854042
5813.964844	-63.663212
5857.031250	-66.134918
5900.097656	-65.198120
5943.164062	-64.560364
5986.230469	-66.701897
6029.296875	-66.438347
6072.363281	-64.960777
6115.429688	-64.636230
6158.496094	-64.535126
6201.562500	-66.079865
6244.628906	-66.829117
6287.695312	-65.652657
6330.761719	-65.813614
6373.828125	-68.305969
6416.894531	-68.883278
6459.960938	-65.687759
6503.027344	-64.071320
6546.093750	-65.177536
6589.160156	-65.208138
6632.226562	-65.237099
6675.292969	-65.732521
6718.359375	-67.203773
6761.425781	-66.965919
6804.492188	-67.926590
6847.558594	-66.037689
6890.625000	-65.457542
6933.691406	-66.303421
6976.757812	-65.448372
7019.824219	-65.409760
7062.890625	-65.184479
7105.957031	-64.073090
7149.023438	-62.544182
7192.089844	-61.465672
7235.156250	-62.343933
7278.222656	-64.198280
7321.289062	-65.161301
7364.355469	-66.000114
7407.421875	-65.235733
7450.488281	-64.351028
7493.554688	-67.035027
7536.621094	-68.454819
7579.687500	-68.285477
7622.753906	-68.367950
7665.820312	-68.448944
7708.886719	-69.404472
7751.953125	-71.037071
7795.019531	-69.430893
7838.085938	-67.677696
7881.152344	-67.792946
7924.218750	-70.250648
7967.285156	-69.637589
8010.351562	-65.982552
8053.417969	-65.497208
8096.484375	-66.993675
8139.550781	-67.602631
8182.617188	-67.312859
8225.683594	-66.997269
8268.750000	-69.004395
8311.816406	-70.276161
8354.882812	-71.259491
8397.949219	-68.666069
8441.015625	-67.500664
8484.082031	-69.393387
8527.148438	-70.618149
8570.214844	-70.706314
8613.281250	-70.376579
8656.347656	-69.434181
8699.414062	-67.848244
8742.480469	-65.276085
8785.546875	-65.149315
8828.613281	-65.851135
8871.679688	-65.969406
8914.746094	-65.405167
8957.812500	-64.297676
9000.878906	-63.874416
9043.945312	-65.319206
9087.011719	-66.348274
9130.078125	-64.900803
9173.144531	-64.239365
9216.210938	-65.316254
9259.277344	-66.729767
9302.343750	-65.482368
9345.410156	-66.626900
9388.476562	-67.468384
9431.542969	-66.512558
9474.609375	-66.462555
9517.675781	-68.043076
9560.742188	-62.989960
9603.808594	-60.326191
9646.875000	-60.632557
9689.941406	-63.548450
9733.007812	-62.738075
9776.074219	-62.287838
9819.140625	-62.753326
9862.207031	-62.232059
9905.273438	-62.340820
9948.339844	-64.002495
9991.406250	-66.085907
10034.472656	-64.994041
10077.539062	-66.962494
10120.605469	-66.293915
10163.671875	-64.309685
10206.738281	-64.068954
10249.804688	-63.834679
10292.871094	-62.141293
10335.937500	-62.327873
10379.003906	-62.651016
10422.070312	-63.353523
10465.136719	-64.405167
10508.203125	-63.531628
10551.269531	-65.425491
10594.335938	-65.522156
10637.402344	-63.788204
10680.468750	-62.450947
10723.535156	-62.138992
10766.601562	-62.776726
10809.667969	-61.054806
10852.734375	-61.638016
10895.800781	-62.437416
10938.867188	-61.672417
10981.933594	-63.675865
11025.000000	-65.735313
11068.066406	-62.836842
11111.132812	-61.481770
11154.199219	-62.791042
11197.265625	-63.590797
11240.332031	-64.470970
11283.398438	-65.128731
11326.464844	-66.171707
11369.531250	-65.412346
11412.597656	-64.290588
11455.664062	-64.729248
11498.730469	-64.393135
11541.796875	-64.694847
11584.863281	-62.526844
11627.929688	-61.723755
11670.996094	-62.134174
11714.062500	-61.505085
11757.128906	-62.635815
11800.195312	-63.574291
11843.261719	-64.004181
11886.328125	-61.593063
11929.394531	-60.341621
11972.460938	-60.374294
12015.527344	-59.729713
12058.593750	-59.683514
12101.660156	-60.213409
12144.726562	-63.381218
12187.792969	-65.076477
12230.859375	-62.577816
12273.925781	-61.363781
12316.992188	-60.752193
12360.058594	-58.626091
12403.125000	-56.447731
12446.191406	-56.749931
12489.257812	-57.457386
12532.324219	-59.450424
12575.390625	-60.007816
12618.457031	-59.194111
12661.523438	-60.995735
12704.589844	-63.148338
12747.656250	-64.055779
12790.722656	-61.724564
12833.789062	-60.565716
12876.855469	-61.495651
12919.921875	-62.974483
12962.988281	-62.690834
13006.054688	-59.858040
13049.121094	-59.052670
13092.187500	-59.392441
13135.253906	-59.561615
13178.320312	-59.747936
13221.386719	-59.509495
13264.453125	-59.473537
13307.519531	-60.406357
13350.585938	-61.523415
13393.652344	-59.892681
13436.718750	-60.515991
13479.785156	-60.408714
13522.851562	-59.407753
13565.917969	-61.219402
13608.984375	-62.908783
13652.050781	-60.388008
13695.117188	-60.389431
13738.183594	-60.223660
13781.250000	-62.054115
13824.316406	-63.204357
13867.382812	-62.265419
13910.449219	-60.329033
13953.515625	-58.067818
13996.582031	-57.953228
14039.648438	-59.429237
14082.714844	-61.319225
14125.781250	-58.468678
14168.847656	-56.854168
14211.914062	-58.907978
14254.980469	-60.572311
14298.046875	-58.108192
14341.113281	-57.419098
14384.179688	-59.881271
14427.246094	-60.310081
14470.312500	-59.383713
14513.378906	-60.873550
14556.445312	-57.345074
14599.511719	-55.758854
14642.578125	-56.014984
14685.644531	-57.992004
14728.710938	-58.310463
14771.777344	-59.165203
14814.843750	-61.149441
14857.910156	-58.557125
14900.976562	-57.838066
14944.042969	-60.069664
14987.109375	-58.794418
15030.175781	-60.535389
15073.242188	-60.598537
15116.308594	-59.403992
15159.375000	-58.521168
15202.441406	-57.143028
15245.507812	-57.115974
15288.574219	-58.725101
15331.640625	-59.121086
15374.707031	-58.749825
15417.773438	-59.248955
15460.839844	-59.657154
15503.906250	-59.415005
15546.972656	-59.016544
15590.039062	-59.251530
15633.105469	-58.225113
15676.171875	-56.063362
15719.238281	-54.653461
15762.304688	-54.193943
15805.371094	-52.492413
15848.437500	-52.927418
15891.503906	-55.254669
15934.570312	-55.540215
15977.636719	-57.011841
16020.703125	-58.013077
16063.769531	-56.012775
16106.835938	-55.231567
16149.902344	-55.323074
16192.968750	-54.542053
16236.035156	-54.172813
16279.101562	-53.564484
16322.167969	-53.244465
16365.234375	-53.694698
16408.300781	-55.464188
16451.367188	-57.213333
16494.433594	-55.988552
16537.500000	-55.651676
16580.566406	-55.893318
16623.632812	-55.445251
16666.699219	-57.193443
16709.765625	-58.755173
16752.832031	-57.653389
16795.898438	-57.093571
16838.964844	-57.651035
16882.031250	-57.684265
16925.097656	-58.148857
16968.164062	-56.081966
17011.230469	-53.944996
17054.296875	-55.444454
17097.363281	-57.958714
17140.429688	-59.003197
17183.496094	-57.372429
17226.562500	-56.484531
17269.628906	-57.920925
17312.695312	-56.034439
17355.761719	-56.229866
17398.828125	-57.021057
17441.894531	-56.237896
17484.960938	-53.302292
17528.027344	-54.101578
17571.093750	-55.319214
17614.160156	-55.467373
17657.226562	-54.422623
17700.292969	-53.273029
17743.359375	-55.089687
17786.425781	-55.644600
17829.492188	-56.077545
17872.558594	-57.972446
17915.625000	-55.863087
17958.691406	-55.796246
18001.757812	-57.665550
18044.824219	-57.547741
18087.890625	-55.803490
18130.957031	-57.441391
18174.023438	-58.210148
18217.089844	-57.129929
18260.156250	-55.716278
18303.222656	-55.648277
18346.289062	-56.563301
18389.355469	-54.270226
18432.421875	-55.051250
18475.488281	-55.905468
18518.554688	-55.360348
18561.621094	-57.844810
18604.687500	-61.007057
18647.753906	-55.856384
18690.820312	-57.725803
18733.886719	-57.910183
18776.953125	-54.418610
18820.019531	-57.361423
18863.085938	-57.458652
18906.152344	-57.392647
18949.218750	-61.070488
18992.285156	-59.322987
19035.351562	-58.933746
19078.417969	-59.655209
19121.484375	-58.470295
19164.550781	-58.487862
19207.617188	-58.422962
19250.683594	-60.015678
19293.750000	-58.298565
19336.816406	-56.365604
19379.882812	-56.248863
19422.949219	-59.960690
19466.015625	-62.015121
19509.082031	-59.903584
19552.148438	-60.586475
19595.214844	-59.502083
19638.281250	-61.166271
19681.347656	-59.326019
19724.414062	-58.896152
19767.480469	-59.350639
19810.546875	-57.975548
19853.613281	-58.520226
19896.679688	-59.648209
19939.746094	-60.111992
19982.812500	-62.032505
20025.878906	-58.456860
20068.945312	-57.905888
20112.011719	-60.463634
20155.078125	-62.079281
20198.144531	-61.975086
20241.210938	-63.595333
20284.277344	-63.696419
20327.343750	-63.414051
20370.410156	-61.311855
20413.476562	-62.240551
20456.542969	-63.539059
20499.609375	-64.874519
20542.675781	-64.416420
20585.742188	-63.608494
20628.808594	-65.309860
20671.875000	-64.836761
20714.941406	-64.312775
20758.007812	-62.529541
20801.074219	-62.259087
20844.140625	-64.421707
20887.207031	-63.805519
20930.273438	-61.774197
20973.339844	-61.001141
21016.406250	-60.503986
21059.472656	-60.521496
21102.539062	-63.002018
21145.605469	-62.013481
21188.671875	-61.409050
21231.738281	-62.316177
21274.804688	-61.955910
21317.871094	-63.804390
21360.937500	-66.977669
21404.003906	-65.639275
21447.070312	-65.400833
21490.136719	-63.376560
21533.203125	-63.418514
21576.269531	-67.093414
21619.335938	-66.914795
21662.402344	-64.781654
21705.468750	-66.389267
21748.535156	-68.253151
21791.601562	-68.195816
21834.667969	-66.296707
21877.734375	-65.395081
21920.800781	-67.149666
21963.867188	-67.985794
22006.933594	-66.402946
