周波数 (Hz)	レベル (dB)
43.066406	-29.477030
86.132812	-24.725214
129.199219	-26.622225
172.265625	-34.320267
215.332031	-41.071568
258.398438	-46.365204
301.464844	-46.326012
344.531250	-40.373287
387.597656	-38.104118
430.664062	-38.403347
473.730469	-42.209606
516.796875	-48.168442
559.863281	-48.287136
602.929688	-49.481537
645.996094	-49.876678
689.062500	-53.514923
732.128906	-55.220242
775.195312	-52.529793
818.261719	-48.268082
861.328125	-45.762550
904.394531	-44.099705
947.460938	-44.169365
990.527344	-45.585339
1033.593750	-46.793022
1076.660156	-48.720768
1119.726562	-50.741291
1162.792969	-52.828995
1205.859375	-55.815426
1248.925781	-56.311340
1291.992188	-53.330521
1335.058594	-53.032917
1378.125000	-56.358315
1421.191406	-55.538223
1464.257812	-52.485558
1507.324219	-47.806038
1550.390625	-45.989311
1593.457031	-44.919975
1636.523438	-42.555195
1679.589844	-43.283421
1722.656250	-46.275383
1765.722656	-49.461632
1808.789062	-51.756096
1851.855469	-50.807068
1894.921875	-48.990097
1937.988281	-48.998611
1981.054688	-50.796722
2024.121094	-51.982174
2067.187500	-54.061855
2110.253906	-49.327328
2153.320312	-48.423054
2196.386719	-50.906231
2239.453125	-51.279694
2282.519531	-50.534756
2325.585938	-47.363991
2368.652344	-43.383232
2411.718750	-41.265434
2454.785156	-42.656479
2497.851562	-46.315838
2540.917969	-48.951981
2583.984375	-55.370975
2627.050781	-52.254002
2670.117188	-47.222797
2713.183594	-47.248421
2756.250000	-50.102459
2799.316406	-51.467377
2842.382812	-49.275745
2885.449219	-48.840668
2928.515625	-46.933155
2971.582031	-43.044365
3014.648438	-42.470760
3057.714844	-45.306816
3100.781250	-49.305565
3143.847656	-50.706676
3186.914062	-48.132507
3229.980469	-47.833557
3273.046875	-49.213745
3316.113281	-51.503620
3359.179688	-57.079678
3402.246094	-52.717175
3445.312500	-48.802895
3488.378906	-47.959953
3531.445312	-49.695412
3574.511719	-51.404213
3617.578125	-53.499092
3660.644531	-55.463840
3703.710938	-49.261631
3746.777344	-48.074646
3789.843750	-50.020359
3832.910156	-50.220959
3875.976562	-50.807175
3919.042969	-54.275318
3962.109375	-53.446270
4005.175781	-51.230755
4048.242188	-49.439106
4091.308594	-48.774532
4134.375000	-48.159538
4177.441406	-47.183994
4220.507812	-47.386768
4263.574219	-47.666107
4306.640625	-46.735237
4349.707031	-49.401669
4392.773438	-51.884109
4435.839844	-51.639820
4478.906250	-48.589573
4521.972656	-48.938091
4565.039062	-52.689056
4608.105469	-56.171955
4651.171875	-55.166309
4694.238281	-54.844597
4737.304688	-56.044540
4780.371094	-53.754578
4823.437500	-52.641521
4866.503906	-53.065205
4909.570312	-53.823933
4952.636719	-52.485828
4995.703125	-51.523060
5038.769531	-48.304977
5081.835938	-46.221668
5124.902344	-45.709049
5167.968750	-47.180931
5211.035156	-51.580399
5254.101562	-57.117176
5297.167969	-57.466484
5340.234375	-54.006180
5383.300781	-55.395409
5426.367188	-55.160343
5469.433594	-53.065979
5512.500000	-50.388123
5555.566406	-48.205360
5598.632812	-47.426201
5641.699219	-47.603954
5684.765625	-47.934151
5727.832031	-48.787918
5770.898438	-50.963493
5813.964844	-52.326111
5857.031250	-52.840050
5900.097656	-55.402969
5943.164062	-52.380890
5986.230469	-50.556965
6029.296875	-51.663757
6072.363281	-51.514633
6115.429688	-50.217514
6158.496094	-49.100124
6201.562500	-48.676697
6244.628906	-49.607021
6287.695312	-51.266083
6330.761719	-52.975304
6373.828125	-54.162704
6416.894531	-53.021614
6459.960938	-52.043575
6503.027344	-51.182354
6546.093750	-49.211941
6589.160156	-48.775387
6632.226562	-50.859261
6675.292969	-53.628597
6718.359375	-56.412971
6761.425781	-51.509129
6804.492188	-49.530830
6847.558594	-51.137501
6890.625000	-53.060658
6933.691406	-55.352642
6976.757812	-56.226383
7019.824219	-57.101162
7062.890625	-57.954929
7105.957031	-54.264874
7149.023438	-52.505180
7192.089844	-52.752174
7235.156250	-55.781429
7278.222656	-54.466839
7321.289062	-51.153728
7364.355469	-50.173935
7407.421875	-50.887871
7450.488281	-52.300972
7493.554688	-53.383709
7536.621094	-56.138767
7579.687500	-59.252346
7622.753906	-58.513805
7665.820312	-59.704853
7708.886719	-58.775013
7751.953125	-57.444542
7795.019531	-57.713612
7838.085938	-58.728924
7881.152344	-58.699299
7924.218750	-55.367134
7967.285156	-54.542625
8010.351562	-54.270458
8053.417969	-54.388153
8096.484375	-54.050373
8139.550781	-52.096836
8182.617188	-51.438450
8225.683594	-49.708996
8268.750000	-48.340408
8311.816406	-48.561253
8354.882812	-48.330673
8397.949219	-47.642624
8441.015625	-48.045513
8484.082031	-48.327431
8527.148438	-49.588478
8570.214844	-52.584900
8613.281250	-53.524990
8656.347656	-53.385178
8699.414062	-55.251591
8742.480469	-54.416439
8785.546875	-52.333614
8828.613281	-52.954365
8871.679688	-51.372433
8914.746094	-48.791435
8957.812500	-47.305550
9000.878906	-47.383625
9043.945312	-48.450977
9087.011719	-51.331612
9130.078125	-54.377045
9173.144531	-56.298882
9216.210938	-54.146183
9259.277344	-53.288971
9302.343750	-55.282509
9345.410156	-57.113262
9388.476562	-54.289703
9431.542969	-51.787727
9474.609375	-52.764935
9517.675781	-51.131382
9560.742188	-53.518799
9603.808594	-53.060635
9646.875000	-53.390511
9689.941406	-48.477322
9733.007812	-45.417313
9776.074219	-45.350964
9819.140625	-48.958641
9862.207031	-53.147900
9905.273438	-50.840847
9948.339844	-50.182838
9991.406250	-52.521873
10034.472656	-49.437000
10077.539062	-46.160927
10120.605469	-47.152088
10163.671875	-50.992256
10206.738281	-51.361580
10249.804688	-48.933811
10292.871094	-45.966385
10335.937500	-44.692600
10379.003906	-43.527718
10422.070312	-42.614670
10465.136719	-43.403454
10508.203125	-44.730873
10551.269531	-45.686146
10594.335938	-47.321312
10637.402344	-49.669743
10680.468750	-51.005169
10723.535156	-53.581345
10766.601562	-50.137264
10809.667969	-46.243973
10852.734375	-47.295094
10895.800781	-52.012859
10938.867188	-48.124393
10981.933594	-46.852341
11025.000000	-44.025078
11068.066406	-40.825565
11111.132812	-40.279118
11154.199219	-43.793056
11197.265625	-47.111477
11240.332031	-48.536598
11283.398438	-49.012371
11326.464844	-47.908985
11369.531250	-45.859737
11412.597656	-43.980186
11455.664062	-44.841511
11498.730469	-46.363083
11541.796875	-44.133930
11584.863281	-42.730469
11627.929688	-42.192951
11670.996094	-41.737267
11714.062500	-43.052910
11757.128906	-49.523293
11800.195312	-48.987453
11843.261719	-50.318577
11886.328125	-49.588253
11929.394531	-50.891357
11972.460938	-43.884747
12015.527344	-42.894802
12058.593750	-45.698406
12101.660156	-47.412415
12144.726562	-45.884094
12187.792969	-42.413906
12230.859375	-39.659508
12273.925781	-39.913334
12316.992188	-41.102615
12360.058594	-41.228134
12403.125000	-41.907719
12446.191406	-43.381218
12489.257812	-44.248753
12532.324219	-44.882809
12575.390625	-46.105347
12618.457031	-46.539093
12661.523438	-46.173641
12704.589844	-46.871292
12747.656250	-47.966244
12790.722656	-46.592453
12833.789062	-47.038757
12876.855469	-47.085617
12919.921875	-47.165474
12962.988281	-43.960938
13006.054688	-43.213654
13049.121094	-43.543411
13092.187500	-43.611755
13135.253906	-42.275894
13178.320312	-39.836639
13221.386719	-40.483315
13264.453125	-43.803619
13307.519531	-42.913601
13350.585938	-42.110561
13393.652344	-40.655323
13436.718750	-39.523537
13479.785156	-40.897720
13522.851562	-43.388451
13565.917969	-46.153507
13608.984375	-43.722378
13652.050781	-39.777100
13695.117188	-38.741997
13738.183594	-38.495346
13781.250000	-40.441563
13824.316406	-46.582829
13867.382812	-48.642956
13910.449219	-45.322926
13953.515625	-42.372921
13996.582031	-41.902618
14039.648438	-43.489872
14082.714844	-42.718704
14125.781250	-39.959835
14168.847656	-38.121761
14211.914062	-36.858788
14254.980469	-36.102581
14298.046875	-36.661499
14341.113281	-37.056160
14384.179688	-39.036179
14427.246094	-42.602859
14470.312500	-45.061077
14513.378906	-44.419544
14556.445312	-44.112110
14599.511719	-45.875145
14642.578125	-46.630348
14685.644531	-42.214294
14728.710938	-40.495983
14771.777344	-41.081738
14814.843750	-41.230247
14857.910156	-38.816101
14900.976562	-36.928436
14944.042969	-35.955692
14987.109375	-35.987072
15030.175781	-37.385826
15073.242188	-37.495049
15116.308594	-34.879272
15159.375000	-32.723740
15202.441406	-33.143211
15245.507812	-35.738247
15288.574219	-38.870331
15331.640625	-43.720585
15374.707031	-43.860794
15417.773438	-41.112312
15460.839844	-39.494694
15503.906250	-40.723846
15546.972656	-39.575989
15590.039062	-40.480896
15633.105469	-41.521423
15676.171875	-41.351463
15719.238281	-38.745701
15762.304688	-37.811028
15805.371094	-39.635242
15848.437500	-40.867672
15891.503906	-39.157188
15934.570312	-37.813568
15977.636719	-35.683971
16020.703125	-35.135975
16063.769531	-38.017654
16106.835938	-40.703167
16149.902344	-41.847443
16192.968750	-40.434830
16236.035156	-39.891609
16279.101562	-41.367268
16322.167969	-43.157227
16365.234375	-43.610390
16408.300781	-42.811573
16451.367188	-39.005203
16494.433594	-38.426105
16537.500000	-40.808098
16580.566406	-44.154732
16623.632812	-43.605564
16666.699219	-44.548042
16709.765625	-44.625546
16752.832031	-41.553097
16795.898438	-42.719387
16838.964844	-41.236290
16882.031250	-37.544445
16925.097656	-37.634274
16968.164062	-37.346684
17011.230469	-35.595299
17054.296875	-36.739334
17097.363281	-39.415154
17140.429688	-38.375870
17183.496094	-35.673050
17226.562500	-34.659687
17269.628906	-36.103767
17312.695312	-38.199284
17355.761719	-40.710869
17398.828125	-41.181110
17441.894531	-38.534260
17484.960938	-36.489395
17528.027344	-35.382656
17571.093750	-34.537075
17614.160156	-35.061970
17657.226562	-38.754086
17700.292969	-40.521217
17743.359375	-39.967201
17786.425781	-42.205189
17829.492188	-41.738422
17872.558594	-42.019638
17915.625000	-40.485664
17958.691406	-36.883144
18001.757812	-36.277119
18044.824219	-36.033321
18087.890625	-35.798481
18130.957031	-34.648560
18174.023438	-34.054565
18217.089844	-34.264538
18260.156250	-32.081234
18303.222656	-32.035572
18346.289062	-32.726196
18389.355469	-32.046600
18432.421875	-32.259846
18475.488281	-33.133533
18518.554688	-34.516331
18561.621094	-37.113907
18604.687500	-41.225113
18647.753906	-43.886024
18690.820312	-49.149052
18733.886719	-50.916603
18776.953125	-44.881504
18820.019531	-40.891083
18863.085938	-40.768112
18906.152344	-38.692337
18949.218750	-36.579250
18992.285156	-36.665894
19035.351562	-39.600101
19078.417969	-45.275585
19121.484375	-47.326080
19164.550781	-43.567738
19207.617188	-41.313225
19250.683594	-42.551727
19293.750000	-41.698891
19336.816406	-42.515507
19379.882812	-44.706100
19422.949219	-43.886314
19466.015625	-41.679745
19509.082031	-41.476471
19552.148438	-42.025665
19595.214844	-42.803608
19638.281250	-47.393772
19681.347656	-45.406628
19724.414062	-41.837074
19767.480469	-40.040691
19810.546875	-38.930969
19853.613281	-39.357761
19896.679688	-40.762730
19939.746094	-38.631710
19982.812500	-36.811001
20025.878906	-38.111362
20068.945312	-41.152939
20112.011719	-43.161716
20155.078125	-42.093414
20198.144531	-40.673191
20241.210938	-41.017273
20284.277344	-40.708576
20327.343750	-41.226147
20370.410156	-42.848740
20413.476562	-42.618790
20456.542969	-42.912563
20499.609375	-46.270191
20542.675781	-46.919811
20585.742188	-46.758266
20628.808594	-45.282986
20671.875000	-41.047478
20714.941406	-39.541508
20758.007812	-41.876354
20801.074219	-47.899105
20844.140625	-49.553558
20887.207031	-48.531395
20930.273438	-47.919277
20973.339844	-46.076015
21016.406250	-44.432922
21059.472656	-44.388245
21102.539062	-44.591450
21145.605469	-46.047882
21188.671875	-49.106102
21231.738281	-51.521935
21274.804688	-49.878536
21317.871094	-45.933689
21360.937500	-43.138538
21404.003906	-42.362206
21447.070312	-43.572224
21490.136719	-46.616310
21533.203125	-51.162254
21576.269531	-53.167290
21619.335938	-47.304600
21662.402344	-45.453873
21705.468750	-44.581322
21748.535156	-45.040783
21791.601562	-46.693478
21834.667969	-48.014393
21877.734375	-50.277771
21920.800781	-54.621403
21963.867188	-53.822800
22006.933594	-51.003708
