周波数 (Hz)	レベル (dB)
43.066406	-30.973789
86.132812	-25.168013
129.199219	-26.854910
172.265625	-35.927750
215.332031	-43.953621
258.398438	-47.746101
301.464844	-45.608440
344.531250	-41.479980
387.597656	-40.189011
430.664062	-40.660694
473.730469	-43.832626
516.796875	-48.592026
559.863281	-49.213970
602.929688	-50.972687
645.996094	-51.031063
689.062500	-52.847027
732.128906	-56.387104
775.195312	-51.665504
818.261719	-47.206867
861.328125	-45.242619
904.394531	-43.689430
947.460938	-45.074883
990.527344	-48.313053
1033.593750	-51.915421
1076.660156	-51.958389
1119.726562	-49.956711
1162.792969	-49.572933
1205.859375	-50.216949
1248.925781	-52.192429
1291.992188	-53.157063
1335.058594	-51.480701
1378.125000	-52.970242
1421.191406	-54.747601
1464.257812	-55.082573
1507.324219	-53.814857
1550.390625	-51.202061
1593.457031	-47.947670
1636.523438	-46.941879
1679.589844	-47.302620
1722.656250	-48.100090
1765.722656	-48.963249
1808.789062	-50.108234
1851.855469	-49.887825
1894.921875	-49.230457
1937.988281	-49.082756
1981.054688	-48.393677
2024.121094	-47.604511
2067.187500	-46.237106
2110.253906	-45.337795
2153.320312	-45.035297
2196.386719	-46.793217
2239.453125	-54.074127
2282.519531	-50.345894
2325.585938	-45.189152
2368.652344	-43.770954
2411.718750	-43.503979
2454.785156	-43.923855
2497.851562	-45.483074
2540.917969	-47.771584
2583.984375	-51.288883
2627.050781	-50.288898
2670.117188	-46.383736
2713.183594	-46.717281
2756.250000	-49.836800
2799.316406	-52.344757
2842.382812	-52.074726
2885.449219	-48.484665
2928.515625	-45.765560
2971.582031	-44.586254
3014.648438	-46.287823
3057.714844	-46.589771
3100.781250	-45.852600
3143.847656	-45.317032
3186.914062	-45.919743
3229.980469	-46.820339
3273.046875	-45.420666
3316.113281	-44.107693
3359.179688	-44.563229
3402.246094	-46.669750
3445.312500	-49.294449
3488.378906	-50.580223
3531.445312	-50.211407
3574.511719	-49.078800
3617.578125	-47.442268
3660.644531	-45.335945
3703.710938	-44.941734
3746.777344	-46.524826
3789.843750	-48.151310
3832.910156	-49.337879
3875.976562	-49.424377
3919.042969	-49.163849
3962.109375	-47.441383
4005.175781	-46.200653
4048.242188	-47.946861
4091.308594	-49.131683
4134.375000	-48.878044
4177.441406	-50.671535
4220.507812	-53.727715
4263.574219	-55.564465
4306.640625	-54.076267
4349.707031	-52.228477
4392.773438	-50.410347
4435.839844	-48.234467
4478.906250	-48.236103
4521.972656	-49.677536
4565.039062	-50.846664
4608.105469	-54.521805
4651.171875	-52.321140
4694.238281	-48.781372
4737.304688	-48.841579
4780.371094	-48.441277
4823.437500	-46.418018
4866.503906	-45.857498
4909.570312	-47.156887
4952.636719	-49.408619
4995.703125	-52.562843
5038.769531	-53.525448
5081.835938	-56.590519
5124.902344	-57.574226
5167.968750	-55.480957
5211.035156	-52.587246
5254.101562	-49.990353
5297.167969	-48.577126
5340.234375	-49.552292
5383.300781	-54.106853
5426.367188	-52.453529
5469.433594	-47.823685
5512.500000	-45.587433
5555.566406	-46.079346
5598.632812	-47.685738
5641.699219	-48.407761
5684.765625	-49.836781
5727.832031	-51.090538
5770.898438	-50.535496
5813.964844	-50.471489
5857.031250	-51.831722
5900.097656	-51.642250
5943.164062	-51.306435
5986.230469	-51.875565
6029.296875	-54.726582
6072.363281	-58.460567
6115.429688	-57.712955
6158.496094	-52.940289
6201.562500	-49.767075
6244.628906	-48.097336
6287.695312	-48.837185
6330.761719	-52.889862
6373.828125	-53.619564
6416.894531	-51.601471
6459.960938	-51.323387
6503.027344	-50.277893
6546.093750	-48.354294
6589.160156	-47.721897
6632.226562	-47.968666
6675.292969	-48.324825
6718.359375	-48.784088
6761.425781	-50.494564
6804.492188	-54.730125
6847.558594	-54.252079
6890.625000	-51.900734
6933.691406	-52.550613
6976.757812	-52.268921
7019.824219	-50.353699
7062.890625	-48.950573
7105.957031	-47.926491
7149.023438	-49.197197
7192.089844	-53.144085
7235.156250	-54.913460
7278.222656	-55.697945
7321.289062	-51.557301
7364.355469	-49.387291
7407.421875	-48.679237
7450.488281	-48.183567
7493.554688	-49.956512
7536.621094	-53.708076
7579.687500	-54.288078
7622.753906	-52.829910
7665.820312	-53.033592
7708.886719	-54.733410
7751.953125	-55.078518
7795.019531	-52.798836
7838.085938	-52.462849
7881.152344	-55.460190
7924.218750	-57.183411
7967.285156	-55.954090
8010.351562	-54.292805
8053.417969	-53.905823
8096.484375	-53.553596
8139.550781	-52.277081
8182.617188	-51.245708
8225.683594	-50.866970
8268.750000	-52.451019
8311.816406	-55.450920
8354.882812	-56.441830
8397.949219	-53.823597
8441.015625	-50.568935
8484.082031	-49.460312
8527.148438	-49.849045
8570.214844	-48.133862
8613.281250	-48.424007
8656.347656	-48.904621
8699.414062	-50.694519
8742.480469	-51.722290
8785.546875	-50.602482
8828.613281	-51.577209
8871.679688	-53.575108
8914.746094	-55.467419
8957.812500	-52.231136
9000.878906	-52.367077
9043.945312	-52.481510
9087.011719	-52.866047
9130.078125	-51.854679
9173.144531	-50.162029
9216.210938	-48.180737
9259.277344	-45.859524
9302.343750	-46.422279
9345.410156	-47.772816
9388.476562	-47.952663
9431.542969	-47.410500
9474.609375	-45.966331
9517.675781	-44.504669
9560.742188	-45.210350
9603.808594	-47.488445
9646.875000	-49.277645
9689.941406	-51.344784
9733.007812	-50.722546
9776.074219	-47.780926
9819.140625	-46.445370
9862.207031	-47.283169
9905.273438	-48.468185
9948.339844	-44.919765
9991.406250	-45.769421
10034.472656	-47.476212
10077.539062	-45.866043
10120.605469	-43.879654
10163.671875	-44.045364
10206.738281	-45.153408
10249.804688	-46.442760
10292.871094	-49.287144
10335.937500	-49.171436
10379.003906	-49.589096
10422.070312	-53.098988
10465.136719	-51.397640
10508.203125	-49.977112
10551.269531	-47.946888
10594.335938	-48.008118
10637.402344	-52.242306
10680.468750	-55.776188
10723.535156	-51.524830
10766.601562	-50.459599
10809.667969	-53.213898
10852.734375	-51.602089
10895.800781	-50.866997
10938.867188	-52.152866
10981.933594	-48.171623
11025.000000	-47.684593
11068.066406	-49.663425
11111.132812	-49.399727
11154.199219	-48.283512
11197.265625	-46.103638
11240.332031	-44.169205
11283.398438	-42.183716
11326.464844	-40.942677
11369.531250	-42.669666
11412.597656	-43.281937
11455.664062	-44.959671
11498.730469	-50.053482
11541.796875	-46.700016
11584.863281	-44.750969
11627.929688	-44.380795
11670.996094	-46.064732
11714.062500	-49.191048
11757.128906	-48.146843
11800.195312	-45.666325
11843.261719	-47.339859
11886.328125	-49.520405
11929.394531	-46.783592
11972.460938	-46.211773
12015.527344	-47.137356
12058.593750	-48.999855
12101.660156	-48.035271
12144.726562	-44.887104
12187.792969	-43.093826
12230.859375	-43.381615
12273.925781	-44.149185
12316.992188	-45.142357
12360.058594	-45.327972
12403.125000	-43.832226
12446.191406	-42.970486
12489.257812	-44.159176
12532.324219	-47.195663
12575.390625	-50.531036
12618.457031	-48.840866
12661.523438	-46.647007
12704.589844	-47.130089
12747.656250	-50.709496
12790.722656	-50.346680
12833.789062	-47.193451
12876.855469	-46.141438
12919.921875	-45.862324
12962.988281	-45.724930
13006.054688	-44.143566
13049.121094	-42.727299
13092.187500	-44.099491
13135.253906	-45.062054
13178.320312	-44.864250
13221.386719	-43.182655
13264.453125	-41.833084
13307.519531	-40.666367
13350.585938	-42.468773
13393.652344	-48.774670
13436.718750	-47.275696
13479.785156	-47.863819
13522.851562	-48.641541
13565.917969	-46.858112
13608.984375	-44.479980
13652.050781	-41.068592
13695.117188	-38.080112
13738.183594	-37.134151
13781.250000	-39.514935
13824.316406	-41.713486
13867.382812	-44.061363
13910.449219	-41.554714
13953.515625	-38.348167
13996.582031	-37.785172
14039.648438	-38.970463
14082.714844	-42.136330
14125.781250	-44.826977
14168.847656	-44.648296
14211.914062	-42.190689
14254.980469	-40.342571
14298.046875	-40.538807
14341.113281	-42.625885
14384.179688	-43.450188
14427.246094	-41.000824
14470.312500	-38.935699
14513.378906	-40.811874
14556.445312	-42.771263
14599.511719	-41.276588
14642.578125	-38.550663
14685.644531	-35.928257
14728.710938	-35.401196
14771.777344	-37.765076
14814.843750	-44.513775
14857.910156	-46.818981
14900.976562	-45.296684
14944.042969	-49.619396
14987.109375	-50.365265
15030.175781	-46.571293
15073.242188	-45.288761
15116.308594	-45.346447
15159.375000	-45.666351
15202.441406	-47.687382
15245.507812	-41.310452
15288.574219	-38.817978
15331.640625	-37.930027
15374.707031	-38.117664
15417.773438	-40.019405
15460.839844	-40.753616
15503.906250	-39.676022
15546.972656	-39.712830
15590.039062	-40.991684
15633.105469	-44.432117
15676.171875	-46.088264
15719.238281	-43.492279
15762.304688	-46.293972
15805.371094	-43.427807
15848.437500	-41.223591
15891.503906	-41.620216
15934.570312	-41.898754
15977.636719	-43.446461
16020.703125	-45.086563
16063.769531	-40.462589
16106.835938	-39.837856
16149.902344	-42.639465
16192.968750	-40.733341
16236.035156	-38.863884
16279.101562	-37.277603
16322.167969	-36.009918
16365.234375	-36.560970
16408.300781	-39.623238
16451.367188	-41.599594
16494.433594	-40.477581
16537.500000	-39.629890
16580.566406	-40.288635
16623.632812	-39.291203
16666.699219	-36.430656
16709.765625	-36.099586
16752.832031	-36.875687
16795.898438	-36.441444
16838.964844	-38.093014
16882.031250	-38.106815
16925.097656	-35.258961
16968.164062	-37.583660
17011.230469	-41.907887
17054.296875	-44.279999
17097.363281	-43.385605
17140.429688	-44.865242
17183.496094	-40.956699
17226.562500	-37.987965
17269.628906	-36.848423
17312.695312	-36.655796
17355.761719	-37.885132
17398.828125	-39.135651
17441.894531	-38.029198
17484.960938	-36.462425
17528.027344	-36.257961
17571.093750	-37.213001
17614.160156	-40.433262
17657.226562	-45.066730
17700.292969	-43.451382
17743.359375	-44.832844
17786.425781	-48.089333
17829.492188	-42.794727
17872.558594	-44.374569
17915.625000	-43.549122
17958.691406	-38.509647
18001.757812	-36.807423
18044.824219	-35.087387
18087.890625	-33.803204
18130.957031	-31.730658
18174.023438	-32.109505
18217.089844	-35.705956
18260.156250	-41.016727
18303.222656	-38.998413
18346.289062	-37.204941
18389.355469	-36.581074
18432.421875	-35.796116
18475.488281	-34.370338
18518.554688	-33.190292
18561.621094	-32.691746
18604.687500	-33.423855
18647.753906	-34.547276
18690.820312	-35.235832
18733.886719	-37.648979
18776.953125	-40.901531
18820.019531	-43.826038
18863.085938	-46.718815
18906.152344	-38.800106
18949.218750	-35.072830
18992.285156	-35.917450
19035.351562	-37.502190
19078.417969	-40.290840
19121.484375	-44.966778
19164.550781	-45.862789
19207.617188	-43.168125
19250.683594	-39.666065
19293.750000	-37.522705
19336.816406	-38.035606
19379.882812	-41.634083
19422.949219	-44.125084
19466.015625	-44.793785
19509.082031	-42.597878
19552.148438	-39.302685
19595.214844	-39.195408
19638.281250	-39.822384
19681.347656	-40.386723
19724.414062	-44.651218
19767.480469	-41.277908
19810.546875	-38.942635
19853.613281	-40.756123
19896.679688	-42.999889
19939.746094	-42.461090
19982.812500	-42.076389
20025.878906	-40.736252
20068.945312	-38.806324
20112.011719	-37.370468
20155.078125	-35.983723
20198.144531	-36.020767
20241.210938	-38.226955
20284.277344	-42.032352
20327.343750	-44.055569
20370.410156	-41.765247
20413.476562	-40.708286
20456.542969	-43.070026
20499.609375	-46.321232
20542.675781	-50.442333
20585.742188	-51.505417
20628.808594	-50.808384
20671.875000	-52.908180
20714.941406	-50.699341
20758.007812	-48.537979
20801.074219	-47.627136
20844.140625	-47.484013
20887.207031	-47.580269
20930.273438	-45.425331
20973.339844	-43.084957
21016.406250	-44.423027
21059.472656	-48.575592
21102.539062	-48.582661
21145.605469	-47.721260
21188.671875	-46.883266
21231.738281	-45.580830
21274.804688	-44.436447
21317.871094	-44.124290
21360.937500	-44.439297
21404.003906	-46.198608
21447.070312	-47.681526
21490.136719	-46.117657
21533.203125	-44.284355
21576.269531	-44.436996
21619.335938	-46.782627
21662.402344	-50.468861
21705.468750	-50.571537
21748.535156	-48.877525
21791.601562	-48.955997
21834.667969	-49.642002
21877.734375	-47.649597
21920.800781	-46.459793
21963.867188	-48.106739
22006.933594	-51.864128
