周波数 (Hz)	レベル (dB)
43.066406	-29.114344
86.132812	-25.385572
129.199219	-27.217613
172.265625	-32.109856
215.332031	-36.655231
258.398438	-43.999134
301.464844	-42.449184
344.531250	-40.174572
387.597656	-42.527496
430.664062	-41.797379
473.730469	-42.171696
516.796875	-39.733715
559.863281	-42.571499
602.929688	-48.878674
645.996094	-48.068142
689.062500	-47.268803
732.128906	-46.955795
775.195312	-46.325844
818.261719	-44.645504
861.328125	-43.931877
904.394531	-43.183136
947.460938	-43.355404
990.527344	-44.036671
1033.593750	-44.675995
1076.660156	-43.389626
1119.726562	-42.219242
1162.792969	-43.833042
1205.859375	-44.755775
1248.925781	-43.738312
1291.992188	-44.386288
1335.058594	-47.605392
1378.125000	-50.448799
1421.191406	-49.064190
1464.257812	-47.822746
1507.324219	-48.177269
1550.390625	-47.675392
1593.457031	-46.262398
1636.523438	-44.293678
1679.589844	-44.630432
1722.656250	-45.702980
1765.722656	-43.416130
1808.789062	-41.835964
1851.855469	-42.262917
1894.921875	-45.464214
1937.988281	-50.872974
1981.054688	-53.679348
2024.121094	-50.310207
2067.187500	-47.619926
2110.253906	-45.827267
2153.320312	-45.314213
2196.386719	-46.470528
2239.453125	-49.683361
2282.519531	-53.502705
2325.585938	-53.022869
2368.652344	-50.399303
2411.718750	-45.561756
2454.785156	-41.787533
2497.851562	-40.760315
2540.917969	-41.581280
2583.984375	-42.321068
2627.050781	-42.049339
2670.117188	-41.840157
2713.183594	-43.061237
2756.250000	-45.689610
2799.316406	-48.262917
2842.382812	-48.911808
2885.449219	-47.061913
2928.515625	-45.148155
2971.582031	-45.058861
3014.648438	-46.334892
3057.714844	-45.321762
3100.781250	-45.215691
3143.847656	-46.392368
3186.914062	-46.132099
3229.980469	-45.358212
3273.046875	-46.738392
3316.113281	-46.115753
3359.179688	-43.660446
3402.246094	-42.983177
3445.312500	-42.987122
3488.378906	-40.552078
3531.445312	-38.342182
3574.511719	-37.280838
3617.578125	-37.980782
3660.644531	-38.934486
3703.710938	-40.087498
3746.777344	-42.840961
3789.843750	-46.172558
3832.910156	-47.613152
3875.976562	-48.425606
3919.042969	-44.817024
3962.109375	-41.910606
4005.175781	-41.611546
4048.242188	-43.610077
4091.308594	-44.141705
4134.375000	-42.875835
4177.441406	-43.209347
4220.507812	-45.215324
4263.574219	-47.509598
4306.640625	-49.451942
4349.707031	-49.105511
4392.773438	-48.497070
4435.839844	-48.262531
4478.906250	-48.622959
4521.972656	-48.559517
4565.039062	-48.524143
4608.105469	-48.722622
4651.171875	-49.167774
4694.238281	-47.919449
4737.304688	-47.088345
4780.371094	-46.295033
4823.437500	-46.946533
4866.503906	-49.902607
4909.570312	-52.283417
4952.636719	-48.025108
4995.703125	-45.296738
5038.769531	-44.987267
5081.835938	-47.540279
5124.902344	-52.302280
5167.968750	-58.666931
5211.035156	-55.397598
5254.101562	-49.656658
5297.167969	-47.701092
5340.234375	-47.607368
5383.300781	-48.976757
5426.367188	-49.269882
5469.433594	-48.417660
5512.500000	-47.994747
5555.566406	-48.856617
5598.632812	-52.294724
5641.699219	-55.924751
5684.765625	-57.980068
5727.832031	-55.925705
5770.898438	-53.609238
5813.964844	-51.850082
5857.031250	-50.939068
5900.097656	-50.907326
5943.164062	-51.385147
5986.230469	-50.875401
6029.296875	-48.229549
6072.363281	-47.699844
6115.429688	-49.077930
6158.496094	-49.213840
6201.562500	-48.835464
6244.628906	-48.489372
6287.695312	-46.173553
6330.761719	-43.908100
6373.828125	-43.239292
6416.894531	-43.221134
6459.960938	-44.014328
6503.027344	-44.460369
6546.093750	-45.258232
6589.160156	-46.621399
6632.226562	-48.593716
6675.292969	-50.434811
6718.359375	-50.726387
6761.425781	-51.851707
6804.492188	-50.764214
6847.558594	-48.954773
6890.625000	-47.626312
6933.691406	-46.931973
6976.757812	-46.299835
7019.824219	-45.481544
7062.890625	-46.301449
7105.957031	-48.151714
7149.023438	-47.932629
7192.089844	-46.255043
7235.156250	-45.456245
7278.222656	-46.418434
7321.289062	-48.697811
7364.355469	-51.189011
7407.421875	-50.501034
7450.488281	-50.569599
7493.554688	-49.255203
7536.621094	-46.647400
7579.687500	-46.212757
7622.753906	-47.167526
7665.820312	-48.749111
7708.886719	-49.732021
7751.953125	-49.282936
7795.019531	-49.085564
7838.085938	-48.723171
7881.152344	-48.996132
7924.218750	-51.826679
7967.285156	-52.503017
8010.351562	-51.189453
8053.417969	-49.580997
8096.484375	-49.145096
8139.550781	-50.584373
8182.617188	-50.164337
8225.683594	-50.367268
8268.750000	-52.829174
8311.816406	-53.960480
8354.882812	-52.822918
8397.949219	-50.786877
8441.015625	-49.244633
8484.082031	-48.556374
8527.148438	-48.704956
8570.214844	-48.513287
8613.281250	-48.077206
8656.347656	-48.228016
8699.414062	-49.060638
8742.480469	-49.165222
8785.546875	-49.285351
8828.613281	-53.184505
8871.679688	-52.850689
8914.746094	-49.347279
8957.812500	-47.941845
9000.878906	-44.934067
9043.945312	-43.498135
9087.011719	-44.994469
9130.078125	-48.144314
9173.144531	-48.000290
9216.210938	-47.256294
9259.277344	-47.275249
9302.343750	-47.178246
9345.410156	-47.314713
9388.476562	-48.737759
9431.542969	-47.967091
9474.609375	-45.164349
9517.675781	-44.382088
9560.742188	-45.347843
9603.808594	-47.160702
9646.875000	-46.236790
9689.941406	-45.950321
9733.007812	-46.293156
9776.074219	-47.555302
9819.140625	-47.806465
9862.207031	-47.993263
9905.273438	-48.498676
9948.339844	-46.916317
9991.406250	-45.995022
10034.472656	-47.999470
10077.539062	-48.888947
10120.605469	-47.581089
10163.671875	-46.166409
10206.738281	-46.427750
10249.804688	-47.639114
10292.871094	-47.798164
10335.937500	-48.104351
10379.003906	-49.131294
10422.070312	-50.686192
10465.136719	-53.686974
10508.203125	-54.478275
10551.269531	-49.915897
10594.335938	-47.931332
10637.402344	-48.839840
10680.468750	-52.376080
10723.535156	-52.423882
10766.601562	-46.567554
10809.667969	-42.978863
10852.734375	-41.008495
10895.800781	-39.805580
10938.867188	-40.121071
10981.933594	-41.488022
11025.000000	-42.272964
11068.066406	-41.486042
11111.132812	-39.864422
11154.199219	-40.098724
11197.265625	-43.065250
11240.332031	-45.281685
11283.398438	-44.339684
11326.464844	-43.975269
11369.531250	-44.551292
11412.597656	-45.745731
11455.664062	-46.631573
11498.730469	-42.062939
11541.796875	-40.099190
11584.863281	-42.040710
11627.929688	-43.829441
11670.996094	-42.946178
11714.062500	-43.067867
11757.128906	-45.335049
11800.195312	-44.561127
11843.261719	-43.278332
11886.328125	-44.346004
11929.394531	-48.301208
11972.460938	-51.944073
12015.527344	-53.676388
12058.593750	-52.323715
12101.660156	-49.177151
12144.726562	-49.527878
12187.792969	-52.514908
12230.859375	-47.618130
12273.925781	-45.226608
12316.992188	-47.515522
12360.058594	-47.915012
12403.125000	-46.321640
12446.191406	-47.884048
12489.257812	-46.120392
12532.324219	-45.825878
12575.390625	-48.536613
12618.457031	-42.735767
12661.523438	-39.852692
12704.589844	-42.096497
12747.656250	-44.969421
12790.722656	-42.567123
12833.789062	-43.199894
12876.855469	-43.222782
12919.921875	-40.841423
12962.988281	-41.225830
13006.054688	-44.650970
13049.121094	-43.835632
13092.187500	-41.839516
13135.253906	-45.042679
13178.320312	-45.016224
13221.386719	-41.203075
13264.453125	-43.212524
13307.519531	-46.369114
13350.585938	-41.034046
13393.652344	-40.966160
13436.718750	-46.052963
13479.785156	-44.302906
13522.851562	-40.334099
13565.917969	-40.267506
13608.984375	-41.868916
13652.050781	-42.914486
13695.117188	-42.500252
13738.183594	-40.471767
13781.250000	-40.111504
13824.316406	-40.885025
13867.382812	-43.323059
13910.449219	-45.511734
13953.515625	-46.253468
13996.582031	-45.337349
14039.648438	-44.556492
14082.714844	-46.603600
14125.781250	-47.254322
14168.847656	-44.901924
14211.914062	-44.019005
14254.980469	-42.748856
14298.046875	-41.535580
14341.113281	-40.765499
14384.179688	-43.435513
14427.246094	-44.338020
14470.312500	-41.358067
14513.378906	-41.179787
14556.445312	-44.956554
14599.511719	-45.975170
14642.578125	-44.428837
14685.644531	-43.164242
14728.710938	-41.793106
14771.777344	-41.680767
14814.843750	-42.531738
14857.910156	-41.801517
14900.976562	-40.342682
14944.042969	-38.929588
14987.109375	-38.178062
15030.175781	-38.660755
15073.242188	-38.961910
15116.308594	-38.994099
15159.375000	-37.979317
15202.441406	-35.495293
15245.507812	-35.174049
15288.574219	-36.034805
15331.640625	-36.858727
15374.707031	-38.001091
15417.773438	-39.623222
15460.839844	-40.016201
15503.906250	-39.689438
15546.972656	-39.513237
15590.039062	-39.250000
15633.105469	-39.640152
15676.171875	-40.254101
15719.238281	-40.603924
15762.304688	-40.867020
15805.371094	-39.825592
15848.437500	-38.849606
15891.503906	-37.655960
15934.570312	-36.909832
15977.636719	-37.509521
16020.703125	-38.801674
16063.769531	-38.089890
16106.835938	-36.353565
16149.902344	-35.910213
16192.968750	-37.324638
16236.035156	-38.328880
16279.101562	-38.178387
16322.167969	-38.976990
16365.234375	-39.389145
16408.300781	-38.876732
16451.367188	-39.257565
16494.433594	-40.904732
16537.500000	-42.222916
16580.566406	-41.009232
16623.632812	-39.660942
16666.699219	-40.193684
16709.765625	-44.026894
16752.832031	-43.174366
16795.898438	-39.292839
16838.964844	-38.358490
16882.031250	-38.352272
16925.097656	-37.979393
16968.164062	-38.200420
17011.230469	-38.752579
17054.296875	-41.156876
17097.363281	-38.662975
17140.429688	-34.926929
17183.496094	-34.023834
17226.562500	-35.800915
17269.628906	-38.967907
17312.695312	-40.810547
17355.761719	-40.649334
17398.828125	-39.567337
17441.894531	-37.987926
17484.960938	-38.607460
17528.027344	-38.999519
17571.093750	-36.020531
17614.160156	-34.879459
17657.226562	-36.057915
17700.292969	-37.860069
17743.359375	-37.431709
17786.425781	-35.811165
17829.492188	-36.000698
17872.558594	-37.537930
17915.625000	-36.671448
17958.691406	-34.745422
18001.757812	-35.013828
18044.824219	-38.096817
18087.890625	-40.276707
18130.957031	-39.585041
18174.023438	-39.364445
18217.089844	-40.444500
18260.156250	-40.738995
18303.222656	-39.190311
18346.289062	-38.176941
18389.355469	-37.254143
18432.421875	-37.482052
18475.488281	-37.757214
18518.554688	-38.809925
18561.621094	-41.100163
18604.687500	-39.047836
18647.753906	-36.595802
18690.820312	-37.327888
18733.886719	-39.125896
18776.953125	-40.202911
18820.019531	-42.093216
18863.085938	-40.451336
18906.152344	-38.076416
18949.218750	-38.638668
18992.285156	-38.200470
19035.351562	-38.392647
19078.417969	-40.671959
19121.484375	-43.133888
19164.550781	-44.208862
19207.617188	-43.386127
19250.683594	-41.369919
19293.750000	-42.034473
19336.816406	-40.845127
19379.882812	-38.014393
19422.949219	-38.334248
19466.015625	-39.472282
19509.082031	-37.422318
19552.148438	-36.907406
19595.214844	-38.823219
19638.281250	-40.303143
19681.347656	-41.569523
19724.414062	-45.386524
19767.480469	-45.806309
19810.546875	-45.901005
19853.613281	-43.792385
19896.679688	-40.996613
19939.746094	-41.557625
19982.812500	-44.656498
20025.878906	-42.857182
20068.945312	-40.418526
20112.011719	-40.020882
20155.078125	-39.740456
20198.144531	-37.585754
20241.210938	-36.222214
20284.277344	-36.768764
20327.343750	-39.779922
20370.410156	-43.733421
20413.476562	-46.191700
20456.542969	-47.094479
20499.609375	-47.599907
20542.675781	-47.475151
20585.742188	-47.782696
20628.808594	-47.763866
20671.875000	-46.181046
20714.941406	-43.877014
20758.007812	-43.617523
20801.074219	-46.037655
20844.140625	-48.231930
20887.207031	-45.956997
20930.273438	-44.858261
20973.339844	-46.309376
21016.406250	-51.155598
21059.472656	-49.189175
21102.539062	-44.597076
21145.605469	-43.771370
21188.671875	-44.479343
21231.738281	-42.772793
21274.804688	-40.099476
21317.871094	-39.523281
21360.937500	-40.437634
21404.003906	-42.037743
21447.070312	-42.422455
21490.136719	-41.266159
21533.203125	-40.127224
21576.269531	-40.001026
21619.335938	-40.534794
21662.402344	-42.185875
21705.468750	-44.444397
21748.535156	-45.600666
21791.601562	-45.677040
21834.667969	-46.374432
21877.734375	-47.672802
21920.800781	-49.315071
21963.867188	-50.998459
22006.933594	-55.117420
