周波数 (Hz)	レベル (dB)
43.066406	-28.501486
86.132812	-26.955544
129.199219	-29.312263
172.265625	-34.078316
215.332031	-36.307583
258.398438	-42.176121
301.464844	-40.847916
344.531250	-39.671524
387.597656	-44.648693
430.664062	-42.786171
473.730469	-42.351467
516.796875	-39.889275
559.863281	-41.016113
602.929688	-42.664650
645.996094	-42.767139
689.062500	-44.483700
732.128906	-47.123867
775.195312	-43.738060
818.261719	-40.732895
861.328125	-41.584492
904.394531	-43.596470
947.460938	-46.269207
990.527344	-46.731407
1033.593750	-47.473259
1076.660156	-46.481644
1119.726562	-47.768387
1162.792969	-52.557377
1205.859375	-49.675781
1248.925781	-45.086025
1291.992188	-44.448463
1335.058594	-45.157524
1378.125000	-44.783161
1421.191406	-46.293995
1464.257812	-47.002647
1507.324219	-44.912178
1550.390625	-43.045643
1593.457031	-42.736759
1636.523438	-44.362831
1679.589844	-46.119858
1722.656250	-44.643921
1765.722656	-42.098618
1808.789062	-40.410172
1851.855469	-40.314133
1894.921875	-41.506622
1937.988281	-43.028145
1981.054688	-45.877693
2024.121094	-47.514225
2067.187500	-43.964592
2110.253906	-42.587078
2153.320312	-43.036736
2196.386719	-45.102341
2239.453125	-47.250771
2282.519531	-43.877934
2325.585938	-40.695286
2368.652344	-40.453007
2411.718750	-41.358601
2454.785156	-41.276436
2497.851562	-41.326843
2540.917969	-42.226715
2583.984375	-41.718540
2627.050781	-40.642719
2670.117188	-40.887974
2713.183594	-41.908344
2756.250000	-42.585358
2799.316406	-43.598988
2842.382812	-45.087875
2885.449219	-44.337143
2928.515625	-42.121174
2971.582031	-40.961590
3014.648438	-40.320534
3057.714844	-39.549625
3100.781250	-39.369568
3143.847656	-39.855480
3186.914062	-39.973335
3229.980469	-40.530148
3273.046875	-43.124889
3316.113281	-43.725288
3359.179688	-40.303787
3402.246094	-39.222935
3445.312500	-40.186104
3488.378906	-43.166363
3531.445312	-46.261372
3574.511719	-47.115685
3617.578125	-43.063107
3660.644531	-42.047611
3703.710938	-43.400974
3746.777344	-44.565090
3789.843750	-43.569477
3832.910156	-41.850342
3875.976562	-40.975895
3919.042969	-41.193172
3962.109375	-42.094650
4005.175781	-42.194401
4048.242188	-41.624741
4091.308594	-42.040520
4134.375000	-43.533363
4177.441406	-45.205338
4220.507812	-46.017254
4263.574219	-44.937862
4306.640625	-44.386868
4349.707031	-45.402599
4392.773438	-45.603085
4435.839844	-44.881176
4478.906250	-45.234413
4521.972656	-48.806900
4565.039062	-52.770000
4608.105469	-52.136654
4651.171875	-52.471027
4694.238281	-48.318382
4737.304688	-45.790493
4780.371094	-46.676060
4823.437500	-49.773029
4866.503906	-51.455296
4909.570312	-50.964924
4952.636719	-48.496471
4995.703125	-49.223515
5038.769531	-51.945984
5081.835938	-50.981812
5124.902344	-49.746014
5167.968750	-48.278187
5211.035156	-47.959759
5254.101562	-48.878410
5297.167969	-50.670277
5340.234375	-50.623886
5383.300781	-50.184540
5426.367188	-52.197239
5469.433594	-55.468887
5512.500000	-52.142147
5555.566406	-51.388802
5598.632812	-52.666950
5641.699219	-54.233402
5684.765625	-52.392410
5727.832031	-49.288582
5770.898438	-48.202702
5813.964844	-47.200233
5857.031250	-47.153236
5900.097656	-47.609177
5943.164062	-47.183990
5986.230469	-48.039944
6029.296875	-48.250198
6072.363281	-47.397560
6115.429688	-48.742950
6158.496094	-51.302200
6201.562500	-50.336746
6244.628906	-48.664448
6287.695312	-47.665462
6330.761719	-50.951042
6373.828125	-53.582329
6416.894531	-48.471626
6459.960938	-47.100597
6503.027344	-48.779690
6546.093750	-54.742153
6589.160156	-51.700085
6632.226562	-53.049274
6675.292969	-52.528172
6718.359375	-50.738472
6761.425781	-53.138226
6804.492188	-52.193913
6847.558594	-51.046913
6890.625000	-49.138042
6933.691406	-48.544849
6976.757812	-50.598263
7019.824219	-49.493309
7062.890625	-45.635647
7105.957031	-45.677757
7149.023438	-47.504440
7192.089844	-47.610554
7235.156250	-48.763023
7278.222656	-49.648407
7321.289062	-47.226440
7364.355469	-45.516270
7407.421875	-44.768333
7450.488281	-45.995396
7493.554688	-48.607315
7536.621094	-49.846516
7579.687500	-50.975754
7622.753906	-51.331314
7665.820312	-50.403217
7708.886719	-50.828896
7751.953125	-51.744114
7795.019531	-50.770725
7838.085938	-52.916992
7881.152344	-57.495251
7924.218750	-55.567738
7967.285156	-52.012897
8010.351562	-50.715714
8053.417969	-50.496769
8096.484375	-51.068790
8139.550781	-49.697704
8182.617188	-48.389484
8225.683594	-47.560310
8268.750000	-47.780163
8311.816406	-49.383270
8354.882812	-50.845524
8397.949219	-48.792442
8441.015625	-46.193253
8484.082031	-45.073711
8527.148438	-45.435665
8570.214844	-47.350456
8613.281250	-50.168278
8656.347656	-49.615334
8699.414062	-49.098217
8742.480469	-49.801746
8785.546875	-48.539585
8828.613281	-46.847134
8871.679688	-47.640091
8914.746094	-49.554226
8957.812500	-49.661739
9000.878906	-46.947945
9043.945312	-44.990135
9087.011719	-45.077682
9130.078125	-45.535030
9173.144531	-43.991055
9216.210938	-42.820446
9259.277344	-42.803215
9302.343750	-43.991375
9345.410156	-45.620445
9388.476562	-45.905254
9431.542969	-43.074100
9474.609375	-40.982563
9517.675781	-41.662117
9560.742188	-45.300030
9603.808594	-45.815681
9646.875000	-45.021912
9689.941406	-47.106400
9733.007812	-49.217041
9776.074219	-46.632042
9819.140625	-45.577892
9862.207031	-45.978161
9905.273438	-44.676830
9948.339844	-45.793953
9991.406250	-49.558933
10034.472656	-50.058918
10077.539062	-48.566906
10120.605469	-47.471939
10163.671875	-43.697205
10206.738281	-43.378002
10249.804688	-46.918606
10292.871094	-45.976566
10335.937500	-43.312859
10379.003906	-42.944523
10422.070312	-45.322693
10465.136719	-49.908997
10508.203125	-51.837166
10551.269531	-48.192520
10594.335938	-43.416821
10637.402344	-42.987972
10680.468750	-45.722244
10723.535156	-46.513496
10766.601562	-43.277637
10809.667969	-41.513702
10852.734375	-44.134964
10895.800781	-50.866425
10938.867188	-50.179756
10981.933594	-46.599224
11025.000000	-43.266251
11068.066406	-44.818523
11111.132812	-49.491585
11154.199219	-49.476162
11197.265625	-46.641685
11240.332031	-44.200310
11283.398438	-42.967762
11326.464844	-43.218597
11369.531250	-43.449234
11412.597656	-43.296745
11455.664062	-43.403801
11498.730469	-44.100430
11541.796875	-45.215984
11584.863281	-46.593204
11627.929688	-49.785660
11670.996094	-49.720413
11714.062500	-49.182098
11757.128906	-47.673561
11800.195312	-44.455235
11843.261719	-43.389599
11886.328125	-44.292480
11929.394531	-43.694519
11972.460938	-43.167278
12015.527344	-44.587414
12058.593750	-47.853809
12101.660156	-48.707943
12144.726562	-47.013283
12187.792969	-48.142044
12230.859375	-49.399155
12273.925781	-47.314804
12316.992188	-44.694836
12360.058594	-43.334244
12403.125000	-44.064762
12446.191406	-46.141865
12489.257812	-45.258335
12532.324219	-44.181015
12575.390625	-44.975819
12618.457031	-46.018326
12661.523438	-46.927544
12704.589844	-42.246338
12747.656250	-39.175087
12790.722656	-39.781403
12833.789062	-41.245441
12876.855469	-39.891869
12919.921875	-40.819424
12962.988281	-42.067055
13006.054688	-43.813095
13049.121094	-47.848694
13092.187500	-43.394482
13135.253906	-39.559235
13178.320312	-38.172894
13221.386719	-38.296719
13264.453125	-39.148232
13307.519531	-39.161236
13350.585938	-38.821156
13393.652344	-39.194595
13436.718750	-39.569767
13479.785156	-41.762627
13522.851562	-46.936852
13565.917969	-46.894917
13608.984375	-43.160736
13652.050781	-40.964588
13695.117188	-41.611637
13738.183594	-43.285553
13781.250000	-45.659981
13824.316406	-48.999538
13867.382812	-42.254299
13910.449219	-40.316807
13953.515625	-40.687714
13996.582031	-43.038059
14039.648438	-47.600876
14082.714844	-45.749989
14125.781250	-46.196186
14168.847656	-49.708061
14211.914062	-47.187965
14254.980469	-46.189346
14298.046875	-44.428894
14341.113281	-43.075836
14384.179688	-41.719986
14427.246094	-40.053322
14470.312500	-41.370651
14513.378906	-44.711052
14556.445312	-43.922428
14599.511719	-41.479702
14642.578125	-41.297428
14685.644531	-43.969162
14728.710938	-47.851463
14771.777344	-43.679253
14814.843750	-43.054340
14857.910156	-45.583511
14900.976562	-44.403275
14944.042969	-44.736782
14987.109375	-43.959068
15030.175781	-44.786785
15073.242188	-46.241470
15116.308594	-46.540810
15159.375000	-46.346443
15202.441406	-43.417049
15245.507812	-39.703625
15288.574219	-38.474682
15331.640625	-37.720943
15374.707031	-36.035385
15417.773438	-35.875839
15460.839844	-38.533939
15503.906250	-41.723915
15546.972656	-41.349350
15590.039062	-40.094604
15633.105469	-40.414406
15676.171875	-41.268703
15719.238281	-40.692795
15762.304688	-40.557510
15805.371094	-40.944244
15848.437500	-42.467999
15891.503906	-42.531559
15934.570312	-39.760239
15977.636719	-39.043255
16020.703125	-40.399864
16063.769531	-42.539940
16106.835938	-42.049843
16149.902344	-41.347904
16192.968750	-43.345634
16236.035156	-44.116322
16279.101562	-42.064705
16322.167969	-40.635326
16365.234375	-40.495087
16408.300781	-41.921024
16451.367188	-42.733089
16494.433594	-42.771702
16537.500000	-42.498608
16580.566406	-37.470562
16623.632812	-35.065754
16666.699219	-37.125690
16709.765625	-37.937859
16752.832031	-35.280693
16795.898438	-34.748299
16838.964844	-36.790691
16882.031250	-38.628273
16925.097656	-37.351822
16968.164062	-35.672550
17011.230469	-35.233295
17054.296875	-35.486786
17097.363281	-36.461647
17140.429688	-38.432701
17183.496094	-39.824753
17226.562500	-38.794945
17269.628906	-37.151951
17312.695312	-35.459503
17355.761719	-34.291332
17398.828125	-34.035748
17441.894531	-34.034248
17484.960938	-34.077389
17528.027344	-35.914360
17571.093750	-39.271385
17614.160156	-41.876503
17657.226562	-42.139374
17700.292969	-40.066856
17743.359375	-39.061378
17786.425781	-39.505817
17829.492188	-39.948978
17872.558594	-38.416916
17915.625000	-38.013290
17958.691406	-38.706932
18001.757812	-38.778427
18044.824219	-36.865883
18087.890625	-36.496956
18130.957031	-37.385807
18174.023438	-38.772190
18217.089844	-37.938816
18260.156250	-35.461388
18303.222656	-35.863087
18346.289062	-38.188637
18389.355469	-37.771076
18432.421875	-37.171394
18475.488281	-37.034618
18518.554688	-37.048958
18561.621094	-36.557884
18604.687500	-36.977993
18647.753906	-38.434769
18690.820312	-39.463207
18733.886719	-41.638775
18776.953125	-45.102852
18820.019531	-41.244473
18863.085938	-36.901291
18906.152344	-36.238464
18949.218750	-38.979374
18992.285156	-40.327305
19035.351562	-36.546356
19078.417969	-36.141930
19121.484375	-41.829464
19164.550781	-41.582764
19207.617188	-37.914639
19250.683594	-40.294430
19293.750000	-44.133327
19336.816406	-40.919613
19379.882812	-39.465145
19422.949219	-41.441364
19466.015625	-42.137669
19509.082031	-42.135132
19552.148438	-41.309799
19595.214844	-38.282398
19638.281250	-37.069916
19681.347656	-38.264202
19724.414062	-41.439648
19767.480469	-43.852768
19810.546875	-43.338818
19853.613281	-44.840488
19896.679688	-46.564034
19939.746094	-44.616886
19982.812500	-44.091045
20025.878906	-42.982590
20068.945312	-41.028427
20112.011719	-40.689751
20155.078125	-41.653099
20198.144531	-43.896912
20241.210938	-42.123466
20284.277344	-38.174061
20327.343750	-36.403889
20370.410156	-36.973152
20413.476562	-38.774120
20456.542969	-38.473827
20499.609375	-37.311985
20542.675781	-38.876015
20585.742188	-43.933006
20628.808594	-48.204292
20671.875000	-46.300934
20714.941406	-48.106716
20758.007812	-49.353107
20801.074219	-46.496708
20844.140625	-43.249458
20887.207031	-43.214886
20930.273438	-46.992046
20973.339844	-48.521740
21016.406250	-43.854477
21059.472656	-41.603230
21102.539062	-42.667542
21145.605469	-46.063709
21188.671875	-47.155113
21231.738281	-44.276016
21274.804688	-42.973343
21317.871094	-44.035793
21360.937500	-44.698215
21404.003906	-43.599323
21447.070312	-43.818115
21490.136719	-46.001816
21533.203125	-50.938911
21576.269531	-49.997341
21619.335938	-47.025547
21662.402344	-48.721458
21705.468750	-51.018063
21748.535156	-47.049103
21791.601562	-46.490852
21834.667969	-47.740620
21877.734375	-50.675804
21920.800781	-56.076958
21963.867188	-50.312553
22006.933594	-46.960201
