周波数 (Hz)	レベル (dB)
43.066406	-27.857721
86.132812	-25.265497
129.199219	-26.789896
172.265625	-32.027401
215.332031	-35.538631
258.398438	-41.937103
301.464844	-40.036015
344.531250	-37.861084
387.597656	-39.976009
430.664062	-39.579678
473.730469	-42.076717
516.796875	-43.725960
559.863281	-43.004898
602.929688	-41.413227
645.996094	-39.892265
689.062500	-39.621128
732.128906	-41.905933
775.195312	-49.602688
818.261719	-45.541718
861.328125	-42.472214
904.394531	-40.776459
947.460938	-40.110794
990.527344	-41.008644
1033.593750	-43.844143
1076.660156	-44.600220
1119.726562	-43.788288
1162.792969	-44.417305
1205.859375	-45.192528
1248.925781	-44.827839
1291.992188	-44.101406
1335.058594	-41.698639
1378.125000	-40.767445
1421.191406	-42.413635
1464.257812	-45.926994
1507.324219	-46.017338
1550.390625	-45.710354
1593.457031	-44.681736
1636.523438	-39.977356
1679.589844	-38.107029
1722.656250	-38.832909
1765.722656	-40.569973
1808.789062	-40.151852
1851.855469	-38.980560
1894.921875	-39.516140
1937.988281	-41.541550
1981.054688	-43.378708
2024.121094	-43.940670
2067.187500	-42.865711
2110.253906	-41.642845
2153.320312	-41.443417
2196.386719	-41.519161
2239.453125	-42.248920
2282.519531	-42.912746
2325.585938	-40.597649
2368.652344	-39.460155
2411.718750	-40.066597
2454.785156	-40.150131
2497.851562	-39.924812
2540.917969	-40.636421
2583.984375	-41.167103
2627.050781	-40.381733
2670.117188	-39.320091
2713.183594	-38.672295
2756.250000	-39.077454
2799.316406	-40.959400
2842.382812	-43.037659
2885.449219	-42.655586
2928.515625	-40.637318
2971.582031	-39.188526
3014.648438	-38.993977
3057.714844	-39.169151
3100.781250	-39.522865
3143.847656	-41.808731
3186.914062	-46.051907
3229.980469	-48.605633
3273.046875	-46.847855
3316.113281	-43.769936
3359.179688	-41.440975
3402.246094	-41.156895
3445.312500	-41.500301
3488.378906	-41.488216
3531.445312	-41.439869
3574.511719	-41.714577
3617.578125	-43.300755
3660.644531	-46.960995
3703.710938	-44.139690
3746.777344	-40.203583
3789.843750	-39.040768
3832.910156	-39.385765
3875.976562	-39.572964
3919.042969	-39.086353
3962.109375	-38.920853
4005.175781	-39.836121
4048.242188	-42.186069
4091.308594	-44.263187
4134.375000	-46.132343
4177.441406	-47.227039
4220.507812	-46.695095
4263.574219	-49.480309
4306.640625	-53.164318
4349.707031	-52.328735
4392.773438	-50.408119
4435.839844	-47.881725
4478.906250	-46.544991
4521.972656	-43.691212
4565.039062	-41.451931
4608.105469	-41.264076
4651.171875	-41.849934
4694.238281	-42.279625
4737.304688	-42.853374
4780.371094	-43.523380
4823.437500	-44.112228
4866.503906	-46.170326
4909.570312	-51.960915
4952.636719	-50.138485
4995.703125	-46.822758
5038.769531	-47.630917
5081.835938	-48.182339
5124.902344	-45.765621
5167.968750	-44.024639
5211.035156	-45.355583
5254.101562	-48.436256
5297.167969	-49.770500
5340.234375	-49.991035
5383.300781	-50.705715
5426.367188	-50.260723
5469.433594	-48.594685
5512.500000	-48.683853
5555.566406	-48.804203
5598.632812	-47.778679
5641.699219	-47.648544
5684.765625	-47.390114
5727.832031	-46.084145
5770.898438	-45.333344
5813.964844	-46.713390
5857.031250	-49.898521
5900.097656	-52.684872
5943.164062	-51.988922
5986.230469	-49.922142
6029.296875	-49.476242
6072.363281	-48.780926
6115.429688	-50.145805
6158.496094	-53.281723
6201.562500	-49.478195
6244.628906	-48.091908
6287.695312	-49.146118
6330.761719	-49.747242
6373.828125	-49.603214
6416.894531	-47.247116
6459.960938	-44.770576
6503.027344	-44.429241
6546.093750	-45.821350
6589.160156	-47.684235
6632.226562	-48.282799
6675.292969	-47.385727
6718.359375	-48.014374
6761.425781	-50.001450
6804.492188	-51.285194
6847.558594	-50.571178
6890.625000	-48.530777
6933.691406	-46.481922
6976.757812	-44.301445
7019.824219	-43.207737
7062.890625	-45.039505
7105.957031	-49.429390
7149.023438	-47.524769
7192.089844	-46.768646
7235.156250	-47.008995
7278.222656	-47.047108
7321.289062	-49.435188
7364.355469	-49.888664
7407.421875	-45.527393
7450.488281	-43.945477
7493.554688	-45.140282
7536.621094	-46.967361
7579.687500	-46.826664
7622.753906	-46.812271
7665.820312	-48.512779
7708.886719	-49.286285
7751.953125	-46.313557
7795.019531	-43.613144
7838.085938	-43.693401
7881.152344	-45.470104
7924.218750	-47.708416
7967.285156	-49.342136
8010.351562	-49.671455
8053.417969	-52.187683
8096.484375	-52.430336
8139.550781	-50.586952
8182.617188	-50.474464
8225.683594	-48.756554
8268.750000	-47.891228
8311.816406	-46.224251
8354.882812	-45.199539
8397.949219	-46.455997
8441.015625	-48.857708
8484.082031	-48.776062
8527.148438	-48.163887
8570.214844	-48.327141
8613.281250	-47.413300
8656.347656	-45.287823
8699.414062	-44.489841
8742.480469	-45.570282
8785.546875	-47.661549
8828.613281	-48.635563
8871.679688	-47.793873
8914.746094	-46.549721
8957.812500	-46.172989
9000.878906	-46.464245
9043.945312	-45.670624
9087.011719	-45.431072
9130.078125	-46.871113
9173.144531	-49.319504
9216.210938	-49.240261
9259.277344	-48.478416
9302.343750	-47.374535
9345.410156	-46.153347
9388.476562	-46.122337
9431.542969	-44.830860
9474.609375	-44.356834
9517.675781	-46.644226
9560.742188	-49.597343
9603.808594	-47.595634
9646.875000	-46.271214
9689.941406	-48.185501
9733.007812	-50.428249
9776.074219	-47.732346
9819.140625	-44.993019
9862.207031	-46.200542
9905.273438	-47.607525
9948.339844	-48.621582
9991.406250	-48.834946
10034.472656	-47.613640
10077.539062	-47.160858
10120.605469	-48.637764
10163.671875	-48.791557
10206.738281	-47.580132
10249.804688	-49.550758
10292.871094	-51.493458
10335.937500	-46.226822
10379.003906	-44.055428
10422.070312	-46.133358
10465.136719	-46.949463
10508.203125	-44.784294
10551.269531	-44.885063
10594.335938	-44.751423
10637.402344	-42.309082
10680.468750	-41.470226
10723.535156	-43.720360
10766.601562	-49.143372
10809.667969	-50.445145
10852.734375	-45.695274
10895.800781	-42.440800
10938.867188	-42.071175
10981.933594	-41.713154
11025.000000	-40.613300
11068.066406	-40.670780
11111.132812	-42.700214
11154.199219	-42.189419
11197.265625	-40.693130
11240.332031	-42.475368
11283.398438	-44.859619
11326.464844	-41.727962
11369.531250	-42.017582
11412.597656	-44.385315
11455.664062	-42.060356
11498.730469	-40.470745
11541.796875	-41.580173
11584.863281	-43.890491
11627.929688	-42.099537
11670.996094	-40.815914
11714.062500	-42.914528
11757.128906	-46.833214
11800.195312	-47.484589
11843.261719	-46.588036
11886.328125	-45.683006
11929.394531	-45.341228
11972.460938	-43.565361
12015.527344	-46.141464
12058.593750	-49.167572
12101.660156	-44.725586
12144.726562	-42.214684
12187.792969	-42.499622
12230.859375	-44.672752
12273.925781	-45.339867
12316.992188	-44.828503
12360.058594	-44.188847
12403.125000	-43.842751
12446.191406	-44.533142
12489.257812	-44.678539
12532.324219	-43.281086
12575.390625	-43.092094
12618.457031	-41.608128
12661.523438	-40.034248
12704.589844	-41.155334
12747.656250	-42.734756
12790.722656	-42.047909
12833.789062	-41.748085
12876.855469	-43.869232
12919.921875	-41.445709
12962.988281	-38.504883
13006.054688	-39.903393
13049.121094	-43.364361
13092.187500	-40.402538
13135.253906	-40.350487
13178.320312	-42.470901
13221.386719	-44.663769
13264.453125	-39.826656
13307.519531	-37.070492
13350.585938	-38.253113
13393.652344	-42.763485
13436.718750	-38.248314
13479.785156	-33.333252
13522.851562	-32.557190
13565.917969	-36.077904
13608.984375	-40.019585
13652.050781	-36.667900
13695.117188	-34.843555
13738.183594	-35.805672
13781.250000	-41.128822
13824.316406	-41.048145
13867.382812	-38.558327
13910.449219	-42.409740
13953.515625	-48.039417
13996.582031	-42.265327
14039.648438	-42.171825
14082.714844	-44.871040
14125.781250	-43.215416
14168.847656	-39.880352
14211.914062	-41.377644
14254.980469	-41.939297
14298.046875	-40.075291
14341.113281	-39.781597
14384.179688	-41.483379
14427.246094	-40.973072
14470.312500	-39.670029
14513.378906	-41.103958
14556.445312	-45.687595
14599.511719	-43.627396
14642.578125	-41.610867
14685.644531	-40.783619
14728.710938	-39.548069
14771.777344	-41.334461
14814.843750	-45.589359
14857.910156	-45.115234
14900.976562	-44.426495
14944.042969	-45.927540
14987.109375	-48.334000
15030.175781	-47.632839
15073.242188	-41.469402
15116.308594	-37.740540
15159.375000	-36.315136
15202.441406	-37.017910
15245.507812	-37.029041
15288.574219	-37.733395
15331.640625	-39.920769
15374.707031	-38.444481
15417.773438	-37.488865
15460.839844	-38.391899
15503.906250	-38.829453
15546.972656	-38.083515
15590.039062	-36.303688
15633.105469	-35.557251
15676.171875	-35.654163
15719.238281	-36.148712
15762.304688	-37.428909
15805.371094	-39.611542
15848.437500	-38.699158
15891.503906	-37.447865
15934.570312	-37.814575
15977.636719	-38.118885
16020.703125	-40.035282
16063.769531	-40.298607
16106.835938	-36.738323
16149.902344	-35.330933
16192.968750	-36.379795
16236.035156	-37.704689
16279.101562	-38.136715
16322.167969	-39.547554
16365.234375	-38.599049
16408.300781	-36.935074
16451.367188	-38.070431
16494.433594	-39.945915
16537.500000	-38.868942
16580.566406	-37.115845
16623.632812	-35.852310
16666.699219	-35.202866
16709.765625	-35.221565
16752.832031	-34.961102
16795.898438	-35.092472
16838.964844	-37.454857
16882.031250	-39.077404
16925.097656	-36.183914
16968.164062	-36.368362
17011.230469	-40.077831
17054.296875	-42.940441
17097.363281	-39.401352
17140.429688	-36.010742
17183.496094	-32.735935
17226.562500	-32.059727
17269.628906	-34.121666
17312.695312	-35.179123
17355.761719	-33.821949
17398.828125	-33.917942
17441.894531	-35.595455
17484.960938	-38.346535
17528.027344	-39.513165
17571.093750	-36.181843
17614.160156	-33.724533
17657.226562	-33.034950
17700.292969	-33.982361
17743.359375	-37.163548
17786.425781	-34.643002
17829.492188	-32.051571
17872.558594	-33.615707
17915.625000	-34.314369
17958.691406	-33.452114
18001.757812	-36.193176
18044.824219	-42.544449
18087.890625	-35.119610
18130.957031	-31.290667
18174.023438	-32.345695
18217.089844	-36.758533
18260.156250	-38.375462
18303.222656	-34.416512
18346.289062	-34.401814
18389.355469	-36.822525
18432.421875	-40.238770
18475.488281	-35.668797
18518.554688	-31.916769
18561.621094	-31.548286
18604.687500	-33.830425
18647.753906	-35.355518
18690.820312	-35.385883
18733.886719	-37.952461
18776.953125	-41.984104
18820.019531	-39.088387
18863.085938	-36.130280
18906.152344	-34.828888
18949.218750	-33.660080
18992.285156	-34.586639
19035.351562	-37.547066
19078.417969	-38.155151
19121.484375	-37.027306
19164.550781	-38.433273
19207.617188	-38.929943
19250.683594	-38.830486
19293.750000	-40.998405
19336.816406	-40.324570
19379.882812	-40.742580
19422.949219	-41.972092
19466.015625	-38.399906
19509.082031	-38.815716
19552.148438	-39.472408
19595.214844	-38.234592
19638.281250	-37.671085
19681.347656	-37.330551
19724.414062	-38.821003
19767.480469	-41.286133
19810.546875	-42.548161
19853.613281	-42.686123
19896.679688	-42.477844
19939.746094	-41.249752
19982.812500	-40.434288
20025.878906	-39.496586
20068.945312	-37.049805
20112.011719	-36.036694
20155.078125	-36.970993
20198.144531	-38.688068
20241.210938	-39.442383
20284.277344	-39.023415
20327.343750	-39.703487
20370.410156	-42.510170
20413.476562	-43.884148
20456.542969	-43.528927
20499.609375	-43.255283
20542.675781	-43.055431
20585.742188	-43.055309
20628.808594	-40.728012
20671.875000	-39.437256
20714.941406	-40.405399
20758.007812	-43.411800
20801.074219	-46.696289
20844.140625	-46.125912
20887.207031	-43.964996
20930.273438	-41.544498
20973.339844	-40.744640
21016.406250	-41.687286
21059.472656	-42.388699
21102.539062	-43.603874
21145.605469	-44.619423
21188.671875	-43.014847
21231.738281	-42.024639
21274.804688	-42.479694
21317.871094	-42.328041
21360.937500	-41.379509
21404.003906	-42.506855
21447.070312	-46.870033
21490.136719	-48.116753
21533.203125	-47.059486
21576.269531	-47.816902
21619.335938	-49.561394
21662.402344	-49.337959
21705.468750	-46.217148
21748.535156	-45.341774
21791.601562	-45.089821
21834.667969	-43.397507
21877.734375	-43.657932
21920.800781	-44.871952
21963.867188	-45.441792
22006.933594	-45.790443
