周波数 (Hz)	レベル (dB)
43.066406	-26.706503
86.132812	-22.821020
129.199219	-25.477062
172.265625	-31.921677
215.332031	-36.923527
258.398438	-43.655739
301.464844	-43.679089
344.531250	-39.868416
387.597656	-37.497494
430.664062	-36.419796
473.730469	-39.274895
516.796875	-44.641228
559.863281	-45.892162
602.929688	-46.702396
645.996094	-44.888378
689.062500	-41.668350
732.128906	-41.420944
775.195312	-40.996548
818.261719	-39.136425
861.328125	-37.995483
904.394531	-37.913082
947.460938	-39.864044
990.527344	-42.457478
1033.593750	-43.124592
1076.660156	-43.609188
1119.726562	-45.831944
1162.792969	-45.710178
1205.859375	-43.977734
1248.925781	-43.806858
1291.992188	-44.752220
1335.058594	-45.818592
1378.125000	-46.635189
1421.191406	-46.362320
1464.257812	-46.697369
1507.324219	-50.413620
1550.390625	-46.896481
1593.457031	-44.019390
1636.523438	-42.132950
1679.589844	-41.520538
1722.656250	-42.868256
1765.722656	-44.443588
1808.789062	-44.866764
1851.855469	-44.581993
1894.921875	-42.921383
1937.988281	-42.634090
1981.054688	-44.509720
2024.121094	-46.749283
2067.187500	-46.900459
2110.253906	-45.256538
2153.320312	-46.211548
2196.386719	-47.191071
2239.453125	-47.313572
2282.519531	-48.861126
2325.585938	-47.247913
2368.652344	-42.822983
2411.718750	-40.618359
2454.785156	-38.846619
2497.851562	-38.538956
2540.917969	-39.338753
2583.984375	-40.363411
2627.050781	-40.975113
2670.117188	-41.865536
2713.183594	-42.358227
2756.250000	-43.833603
2799.316406	-46.361729
2842.382812	-43.895779
2885.449219	-42.782070
2928.515625	-41.898167
2971.582031	-41.483948
3014.648438	-41.721848
3057.714844	-42.211807
3100.781250	-43.445026
3143.847656	-44.144955
3186.914062	-43.307041
3229.980469	-41.378696
3273.046875	-40.029690
3316.113281	-39.977642
3359.179688	-40.872433
3402.246094	-41.851864
3445.312500	-42.318096
3488.378906	-43.856998
3531.445312	-46.506275
3574.511719	-46.787952
3617.578125	-46.513596
3660.644531	-45.631538
3703.710938	-42.996216
3746.777344	-43.282501
3789.843750	-44.193001
3832.910156	-44.068211
3875.976562	-44.915531
3919.042969	-46.909405
3962.109375	-46.908779
4005.175781	-45.563728
4048.242188	-46.209728
4091.308594	-47.090881
4134.375000	-47.565475
4177.441406	-49.193413
4220.507812	-49.006981
4263.574219	-46.630932
4306.640625	-45.287643
4349.707031	-46.271862
4392.773438	-50.169559
4435.839844	-51.890736
4478.906250	-47.887005
4521.972656	-45.736244
4565.039062	-45.856693
4608.105469	-46.988628
4651.171875	-46.109039
4694.238281	-46.596424
4737.304688	-47.894691
4780.371094	-46.624565
4823.437500	-44.565884
4866.503906	-43.485233
4909.570312	-42.974823
4952.636719	-42.557369
4995.703125	-43.387199
5038.769531	-44.381702
5081.835938	-46.856911
5124.902344	-51.561218
5167.968750	-49.322472
5211.035156	-47.150658
5254.101562	-45.274822
5297.167969	-43.870037
5340.234375	-44.112385
5383.300781	-45.411465
5426.367188	-47.010010
5469.433594	-48.745777
5512.500000	-53.369480
5555.566406	-52.862648
5598.632812	-49.410339
5641.699219	-48.625454
5684.765625	-48.700226
5727.832031	-49.490520
5770.898438	-50.796043
5813.964844	-49.628880
5857.031250	-49.875866
5900.097656	-51.770012
5943.164062	-51.053200
5986.230469	-48.985035
6029.296875	-47.614677
6072.363281	-47.657661
6115.429688	-49.885105
6158.496094	-49.785744
6201.562500	-47.422779
6244.628906	-47.212990
6287.695312	-47.348633
6330.761719	-47.111229
6373.828125	-47.202087
6416.894531	-47.124828
6459.960938	-46.779015
6503.027344	-46.055977
6546.093750	-44.652973
6589.160156	-42.643784
6632.226562	-41.781540
6675.292969	-42.555408
6718.359375	-43.859421
6761.425781	-44.697620
6804.492188	-44.970604
6847.558594	-45.269539
6890.625000	-45.830299
6933.691406	-47.616386
6976.757812	-49.167004
7019.824219	-48.701061
7062.890625	-49.332233
7105.957031	-51.164268
7149.023438	-52.225212
7192.089844	-51.242939
7235.156250	-51.605057
7278.222656	-53.763920
7321.289062	-51.864365
7364.355469	-47.843700
7407.421875	-46.910389
7450.488281	-47.407887
7493.554688	-47.398277
7536.621094	-48.472355
7579.687500	-48.683765
7622.753906	-47.997040
7665.820312	-49.297443
7708.886719	-51.005981
7751.953125	-51.148918
7795.019531	-50.386559
7838.085938	-49.190090
7881.152344	-48.066483
7924.218750	-48.477318
7967.285156	-48.990582
8010.351562	-50.239994
8053.417969	-50.070496
8096.484375	-48.355480
8139.550781	-47.542397
8182.617188	-47.719292
8225.683594	-48.785553
8268.750000	-50.386646
8311.816406	-52.213058
8354.882812	-52.349705
8397.949219	-50.995953
8441.015625	-50.107513
8484.082031	-50.763226
8527.148438	-49.610806
8570.214844	-48.062153
8613.281250	-48.045700
8656.347656	-49.554535
8699.414062	-49.155151
8742.480469	-47.380569
8785.546875	-46.385796
8828.613281	-44.762276
8871.679688	-43.759357
8914.746094	-44.630604
8957.812500	-47.400738
9000.878906	-48.245415
9043.945312	-46.864082
9087.011719	-47.425518
9130.078125	-49.342907
9173.144531	-50.539349
9216.210938	-49.112331
9259.277344	-48.859039
9302.343750	-48.218418
9345.410156	-45.892731
9388.476562	-46.070141
9431.542969	-46.490852
9474.609375	-45.693481
9517.675781	-44.870678
9560.742188	-44.842705
9603.808594	-44.931171
9646.875000	-44.889610
9689.941406	-45.119648
9733.007812	-42.938354
9776.074219	-40.671715
9819.140625	-39.837559
9862.207031	-40.824192
9905.273438	-43.395123
9948.339844	-46.884167
9991.406250	-48.982079
10034.472656	-48.100677
10077.539062	-47.772091
10120.605469	-43.282200
10163.671875	-39.364094
10206.738281	-38.506481
10249.804688	-40.545536
10292.871094	-44.915424
10335.937500	-46.778210
10379.003906	-46.786091
10422.070312	-48.369720
10465.136719	-47.668213
10508.203125	-48.882755
10551.269531	-46.914009
10594.335938	-43.803459
10637.402344	-42.962948
10680.468750	-43.523815
10723.535156	-43.694107
10766.601562	-43.272987
10809.667969	-43.122078
10852.734375	-43.553745
10895.800781	-44.808922
10938.867188	-45.901318
10981.933594	-45.811722
11025.000000	-44.645519
11068.066406	-43.140095
11111.132812	-43.252693
11154.199219	-44.116631
11197.265625	-42.742722
11240.332031	-41.584129
11283.398438	-43.902046
11326.464844	-46.877575
11369.531250	-45.772240
11412.597656	-43.920166
11455.664062	-43.264160
11498.730469	-42.465801
11541.796875	-42.263084
11584.863281	-44.207962
11627.929688	-47.307415
11670.996094	-49.164734
11714.062500	-48.033699
11757.128906	-45.239109
11800.195312	-41.821331
11843.261719	-39.689789
11886.328125	-39.884079
11929.394531	-42.376270
11972.460938	-44.747311
12015.527344	-45.119808
12058.593750	-44.241177
12101.660156	-43.114590
12144.726562	-41.565510
12187.792969	-40.173466
12230.859375	-39.747349
12273.925781	-39.778656
12316.992188	-40.483116
12360.058594	-42.459694
12403.125000	-45.773380
12446.191406	-44.484623
12489.257812	-41.067173
12532.324219	-39.468994
12575.390625	-39.812542
12618.457031	-42.475880
12661.523438	-46.283939
12704.589844	-44.609489
12747.656250	-43.531349
12790.722656	-42.693104
12833.789062	-40.859383
12876.855469	-42.286747
12919.921875	-42.563686
12962.988281	-40.062397
13006.054688	-38.773586
13049.121094	-39.144287
13092.187500	-40.284599
13135.253906	-40.644291
13178.320312	-38.439922
13221.386719	-37.056782
13264.453125	-37.489315
13307.519531	-38.551994
13350.585938	-39.498062
13393.652344	-40.531536
13436.718750	-42.403927
13479.785156	-42.977940
13522.851562	-43.918488
13565.917969	-42.868687
13608.984375	-41.409374
13652.050781	-41.207497
13695.117188	-41.181271
13738.183594	-44.209896
13781.250000	-41.350372
13824.316406	-37.613445
13867.382812	-38.757133
13910.449219	-42.039680
13953.515625	-42.471207
13996.582031	-40.614433
14039.648438	-40.184761
14082.714844	-42.410694
14125.781250	-41.682869
14168.847656	-38.275703
14211.914062	-36.227646
14254.980469	-34.880642
14298.046875	-34.258106
14341.113281	-34.135433
14384.179688	-34.166344
14427.246094	-34.440662
14470.312500	-35.254623
14513.378906	-36.348228
14556.445312	-37.985527
14599.511719	-40.384930
14642.578125	-41.966846
14685.644531	-42.857491
14728.710938	-42.228558
14771.777344	-41.633965
14814.843750	-41.107868
14857.910156	-39.812649
14900.976562	-41.485817
14944.042969	-45.680023
14987.109375	-46.146660
15030.175781	-43.870804
15073.242188	-41.148678
15116.308594	-40.688484
15159.375000	-40.202667
15202.441406	-39.030010
15245.507812	-38.977234
15288.574219	-41.000908
15331.640625	-44.525074
15374.707031	-43.850410
15417.773438	-40.457195
15460.839844	-39.088608
15503.906250	-39.440903
15546.972656	-39.630650
15590.039062	-38.874306
15633.105469	-38.071510
15676.171875	-39.153412
15719.238281	-41.154091
15762.304688	-41.568134
15805.371094	-43.130997
15848.437500	-43.198772
15891.503906	-39.445724
15934.570312	-37.072365
15977.636719	-35.890091
16020.703125	-36.237675
16063.769531	-36.461365
16106.835938	-35.554787
16149.902344	-35.708965
16192.968750	-38.197594
16236.035156	-40.551388
16279.101562	-38.685707
16322.167969	-37.622429
16365.234375	-37.313736
16408.300781	-36.796009
16451.367188	-38.612049
16494.433594	-41.136585
16537.500000	-39.727211
16580.566406	-39.668030
16623.632812	-41.978107
16666.699219	-43.238575
16709.765625	-39.969940
16752.832031	-36.604477
16795.898438	-35.488464
16838.964844	-37.545689
16882.031250	-39.114014
16925.097656	-38.757446
16968.164062	-41.403675
17011.230469	-42.428257
17054.296875	-42.335735
17097.363281	-39.575981
17140.429688	-37.221359
17183.496094	-37.832092
17226.562500	-38.722443
17269.628906	-39.377766
17312.695312	-38.588242
17355.761719	-37.586834
17398.828125	-36.284985
17441.894531	-34.415222
17484.960938	-35.329517
17528.027344	-37.676868
17571.093750	-37.381706
17614.160156	-36.638416
17657.226562	-35.801579
17700.292969	-37.078987
17743.359375	-40.129433
17786.425781	-39.928780
17829.492188	-38.280766
17872.558594	-38.757599
17915.625000	-39.208778
17958.691406	-35.832119
18001.757812	-33.826183
18044.824219	-33.967037
18087.890625	-34.623497
18130.957031	-34.350643
18174.023438	-33.079433
18217.089844	-31.388466
18260.156250	-30.542000
18303.222656	-31.097530
18346.289062	-33.216732
18389.355469	-35.181309
18432.421875	-33.642120
18475.488281	-32.319698
18518.554688	-32.482990
18561.621094	-33.366734
18604.687500	-35.184479
18647.753906	-36.960522
18690.820312	-35.779251
18733.886719	-35.289391
18776.953125	-35.376991
18820.019531	-36.793427
18863.085938	-36.243538
18906.152344	-35.961472
18949.218750	-37.746124
18992.285156	-38.815586
19035.351562	-38.253780
19078.417969	-37.824646
19121.484375	-36.539700
19164.550781	-37.408432
19207.617188	-39.120380
19250.683594	-36.407753
19293.750000	-35.177635
19336.816406	-37.359734
19379.882812	-41.389030
19422.949219	-41.544708
19466.015625	-41.572739
19509.082031	-44.418224
19552.148438	-41.176247
19595.214844	-37.068394
19638.281250	-34.794537
19681.347656	-33.926395
19724.414062	-34.173668
19767.480469	-35.708748
19810.546875	-38.323322
19853.613281	-40.680336
19896.679688	-41.662045
19939.746094	-40.438908
19982.812500	-41.014355
20025.878906	-44.021847
20068.945312	-44.303463
20112.011719	-41.941101
20155.078125	-43.109219
20198.144531	-45.206051
20241.210938	-43.993237
20284.277344	-42.395267
20327.343750	-41.352737
20370.410156	-40.601772
20413.476562	-40.998264
20456.542969	-43.269012
20499.609375	-45.532310
20542.675781	-45.389175
20585.742188	-44.485340
20628.808594	-43.762711
20671.875000	-42.497795
20714.941406	-42.867622
20758.007812	-44.343838
20801.074219	-44.912766
20844.140625	-45.088482
20887.207031	-46.902695
20930.273438	-45.664463
20973.339844	-42.339417
21016.406250	-41.141323
21059.472656	-42.728325
21102.539062	-46.679195
21145.605469	-49.889030
21188.671875	-49.173870
21231.738281	-48.617649
21274.804688	-48.705170
21317.871094	-47.232994
21360.937500	-45.887920
21404.003906	-45.995747
21447.070312	-47.113113
21490.136719	-48.024818
21533.203125	-46.959106
21576.269531	-46.724556
21619.335938	-46.693489
21662.402344	-46.587234
21705.468750	-45.932522
21748.535156	-45.240185
21791.601562	-45.226990
21834.667969	-45.180820
21877.734375	-43.333710
21920.800781	-41.811199
21963.867188	-41.996342
22006.933594	-44.975452
