周波数 (Hz)	レベル (dB)
43.066406	-28.112562
86.132812	-23.331881
129.199219	-25.332190
172.265625	-33.734348
215.332031	-42.144783
258.398438	-43.843792
301.464844	-42.292168
344.531250	-39.025982
387.597656	-38.682106
430.664062	-39.800797
473.730469	-42.685631
516.796875	-49.686806
559.863281	-51.295212
602.929688	-50.976185
645.996094	-47.521305
689.062500	-48.022964
732.128906	-53.325901
775.195312	-50.280590
818.261719	-47.264755
861.328125	-46.631905
904.394531	-47.202011
947.460938	-49.356850
990.527344	-50.098244
1033.593750	-47.431454
1076.660156	-45.461349
1119.726562	-46.542782
1162.792969	-48.058540
1205.859375	-46.542591
1248.925781	-44.959515
1291.992188	-46.152695
1335.058594	-46.940174
1378.125000	-47.671631
1421.191406	-50.267502
1464.257812	-51.711445
1507.324219	-48.945724
1550.390625	-45.351196
1593.457031	-44.175304
1636.523438	-42.733719
1679.589844	-42.051903
1722.656250	-44.055019
1765.722656	-48.064194
1808.789062	-48.204193
1851.855469	-46.697556
1894.921875	-47.490620
1937.988281	-48.475319
1981.054688	-47.852814
2024.121094	-46.756630
2067.187500	-45.780411
2110.253906	-44.302448
2153.320312	-43.911938
2196.386719	-44.057030
2239.453125	-45.471172
2282.519531	-49.505817
2325.585938	-51.850399
2368.652344	-49.892597
2411.718750	-46.090981
2454.785156	-42.336796
2497.851562	-40.561840
2540.917969	-41.384632
2583.984375	-45.664886
2627.050781	-55.216438
2670.117188	-53.048359
2713.183594	-50.360313
2756.250000	-52.195568
2799.316406	-53.689999
2842.382812	-49.842175
2885.449219	-49.817215
2928.515625	-50.878494
2971.582031	-44.114521
3014.648438	-42.348080
3057.714844	-47.424530
3100.781250	-52.161442
3143.847656	-48.368954
3186.914062	-45.553669
3229.980469	-44.812283
3273.046875	-47.691593
3316.113281	-53.849426
3359.179688	-49.845249
3402.246094	-48.378551
3445.312500	-52.138241
3488.378906	-55.888527
3531.445312	-51.550831
3574.511719	-45.696049
3617.578125	-43.063625
3660.644531	-43.483845
3703.710938	-45.016624
3746.777344	-45.404175
3789.843750	-46.524693
3832.910156	-51.149574
3875.976562	-52.606438
3919.042969	-52.289749
3962.109375	-54.197815
4005.175781	-54.481804
4048.242188	-49.899471
4091.308594	-50.456242
4134.375000	-52.180614
4177.441406	-53.010319
4220.507812	-48.925209
4263.574219	-47.668949
4306.640625	-47.284637
4349.707031	-47.171494
4392.773438	-50.931885
4435.839844	-54.001381
4478.906250	-51.738270
4521.972656	-53.865730
4565.039062	-55.481567
4608.105469	-53.123390
4651.171875	-51.516335
4694.238281	-49.321087
4737.304688	-47.968128
4780.371094	-47.465260
4823.437500	-50.148037
4866.503906	-49.288380
4909.570312	-48.412647
4952.636719	-52.422947
4995.703125	-54.938637
5038.769531	-52.050888
5081.835938	-49.403690
5124.902344	-49.647160
5167.968750	-52.183907
5211.035156	-53.741295
5254.101562	-51.658047
5297.167969	-52.055061
5340.234375	-54.776154
5383.300781	-54.924931
5426.367188	-59.884979
5469.433594	-54.887527
5512.500000	-52.186470
5555.566406	-52.011913
5598.632812	-50.884499
5641.699219	-50.924484
5684.765625	-55.958946
5727.832031	-61.289371
5770.898438	-59.477592
5813.964844	-52.525269
5857.031250	-50.102200
5900.097656	-51.772537
5943.164062	-55.591373
5986.230469	-55.648884
6029.296875	-55.724514
6072.363281	-58.129524
6115.429688	-56.226337
6158.496094	-53.392025
6201.562500	-54.256336
6244.628906	-56.230030
6287.695312	-54.578854
6330.761719	-53.558968
6373.828125	-51.421524
6416.894531	-49.386330
6459.960938	-49.921410
6503.027344	-54.381588
6546.093750	-56.124119
6589.160156	-53.189365
6632.226562	-52.396217
6675.292969	-54.678562
6718.359375	-56.484486
6761.425781	-57.097717
6804.492188	-57.015427
6847.558594	-55.334511
6890.625000	-55.282146
6933.691406	-54.867710
6976.757812	-53.602192
7019.824219	-53.388062
7062.890625	-55.377258
7105.957031	-55.569489
7149.023438	-50.906975
7192.089844	-46.903286
7235.156250	-46.527874
7278.222656	-49.461662
7321.289062	-49.637836
7364.355469	-48.205952
7407.421875	-48.185581
7450.488281	-50.004662
7493.554688	-53.512783
7536.621094	-52.343628
7579.687500	-50.015541
7622.753906	-48.561062
7665.820312	-48.108669
7708.886719	-47.001732
7751.953125	-46.768387
7795.019531	-49.987240
7838.085938	-53.499622
7881.152344	-51.592468
7924.218750	-49.766518
7967.285156	-49.283321
8010.351562	-48.707214
8053.417969	-47.513538
8096.484375	-47.240448
8139.550781	-47.462620
8182.617188	-47.501087
8225.683594	-48.221054
8268.750000	-51.010956
8311.816406	-54.457253
8354.882812	-52.258057
8397.949219	-47.759045
8441.015625	-45.432877
8484.082031	-45.128693
8527.148438	-45.920876
8570.214844	-47.101994
8613.281250	-48.057934
8656.347656	-49.200344
8699.414062	-51.239498
8742.480469	-53.252052
8785.546875	-53.094894
8828.613281	-50.747860
8871.679688	-47.795799
8914.746094	-49.676117
8957.812500	-52.630692
9000.878906	-53.133652
9043.945312	-50.188862
9087.011719	-50.383453
9130.078125	-50.227783
9173.144531	-49.833046
9216.210938	-51.795811
9259.277344	-53.128551
9302.343750	-51.714535
9345.410156	-49.844982
9388.476562	-50.342148
9431.542969	-50.265968
9474.609375	-49.751026
9517.675781	-50.151974
9560.742188	-51.824581
9603.808594	-52.643745
9646.875000	-49.789154
9689.941406	-51.568520
9733.007812	-52.049877
9776.074219	-47.933071
9819.140625	-48.166927
9862.207031	-49.678581
9905.273438	-47.800652
9948.339844	-46.626129
9991.406250	-46.677845
10034.472656	-46.847099
10077.539062	-45.328953
10120.605469	-44.367634
10163.671875	-45.150608
10206.738281	-46.485378
10249.804688	-46.860096
10292.871094	-47.382408
10335.937500	-49.337280
10379.003906	-53.319256
10422.070312	-53.116474
10465.136719	-51.553871
10508.203125	-52.314312
10551.269531	-51.885994
10594.335938	-49.144611
10637.402344	-46.642952
10680.468750	-44.899368
10723.535156	-46.267342
10766.601562	-47.450504
10809.667969	-45.351601
10852.734375	-45.778984
10895.800781	-48.400131
10938.867188	-49.124569
10981.933594	-48.240314
11025.000000	-49.310444
11068.066406	-51.686417
11111.132812	-52.061131
11154.199219	-46.592239
11197.265625	-42.968506
11240.332031	-40.987156
11283.398438	-40.809288
11326.464844	-42.269463
11369.531250	-43.918396
11412.597656	-46.108715
11455.664062	-46.270119
11498.730469	-43.721085
11541.796875	-43.244827
11584.863281	-45.584579
11627.929688	-47.924038
11670.996094	-48.414326
11714.062500	-45.600113
11757.128906	-43.456768
11800.195312	-43.967873
11843.261719	-45.789413
11886.328125	-48.469883
11929.394531	-50.345516
11972.460938	-49.387848
12015.527344	-46.362675
12058.593750	-43.114861
12101.660156	-41.129574
12144.726562	-41.246029
12187.792969	-43.731789
12230.859375	-48.078358
12273.925781	-50.385113
12316.992188	-52.608807
12360.058594	-49.746487
12403.125000	-43.249794
12446.191406	-37.952457
12489.257812	-36.351818
12532.324219	-37.774487
12575.390625	-41.036243
12618.457031	-44.261852
12661.523438	-44.182964
12704.589844	-41.889923
12747.656250	-40.786537
12790.722656	-41.283180
12833.789062	-43.020668
12876.855469	-48.487434
12919.921875	-50.235634
12962.988281	-44.798306
13006.054688	-41.088745
13049.121094	-40.673485
13092.187500	-42.208637
13135.253906	-42.497887
13178.320312	-42.164101
13221.386719	-43.722004
13264.453125	-45.167912
13307.519531	-43.586880
13350.585938	-42.317268
13393.652344	-41.815933
13436.718750	-41.382160
13479.785156	-43.991455
13522.851562	-50.830391
13565.917969	-43.571129
13608.984375	-40.326550
13652.050781	-40.029259
13695.117188	-40.959251
13738.183594	-42.157974
13781.250000	-45.456409
13824.316406	-48.094070
13867.382812	-44.834957
13910.449219	-41.137222
13953.515625	-39.687294
13996.582031	-40.241180
14039.648438	-42.297577
14082.714844	-44.827583
14125.781250	-43.958836
14168.847656	-41.228035
14211.914062	-40.042206
14254.980469	-42.381123
14298.046875	-47.820412
14341.113281	-47.859882
14384.179688	-47.755226
14427.246094	-43.373417
14470.312500	-41.729271
14513.378906	-43.863598
14556.445312	-47.732536
14599.511719	-47.925251
14642.578125	-46.362141
14685.644531	-42.861816
14728.710938	-40.502617
14771.777344	-41.611584
14814.843750	-45.722794
14857.910156	-46.898991
14900.976562	-44.418549
14944.042969	-41.856754
14987.109375	-39.967716
15030.175781	-40.682373
15073.242188	-43.851974
15116.308594	-42.538498
15159.375000	-41.416962
15202.441406	-43.116936
15245.507812	-42.990955
15288.574219	-38.982941
15331.640625	-36.812790
15374.707031	-39.658669
15417.773438	-41.951153
15460.839844	-36.661137
15503.906250	-36.100533
15546.972656	-40.086555
15590.039062	-44.064056
15633.105469	-43.254631
15676.171875	-42.029434
15719.238281	-41.813168
15762.304688	-42.717373
15805.371094	-41.247620
15848.437500	-39.961445
15891.503906	-41.216423
15934.570312	-42.322239
15977.636719	-41.249859
16020.703125	-40.758892
16063.769531	-38.764690
16106.835938	-38.689240
16149.902344	-41.406250
16192.968750	-40.929714
16236.035156	-40.943302
16279.101562	-43.367935
16322.167969	-39.203098
16365.234375	-37.793194
16408.300781	-39.847965
16451.367188	-44.497059
16494.433594	-43.233597
16537.500000	-43.913334
16580.566406	-46.129715
16623.632812	-44.791668
16666.699219	-42.936882
16709.765625	-40.026711
16752.832031	-39.770012
16795.898438	-39.229733
16838.964844	-36.331638
16882.031250	-35.183025
16925.097656	-37.369583
16968.164062	-42.842167
17011.230469	-47.401367
17054.296875	-44.452511
17097.363281	-42.466785
17140.429688	-41.875511
17183.496094	-43.956688
17226.562500	-46.979061
17269.628906	-44.154678
17312.695312	-43.075825
17355.761719	-44.054436
17398.828125	-40.586769
17441.894531	-37.671211
17484.960938	-37.892319
17528.027344	-39.975525
17571.093750	-42.875973
17614.160156	-40.175831
17657.226562	-36.227440
17700.292969	-35.571709
17743.359375	-37.945629
17786.425781	-40.475182
17829.492188	-37.010178
17872.558594	-34.683289
17915.625000	-35.191055
17958.691406	-37.745106
18001.757812	-41.213154
18044.824219	-41.930653
18087.890625	-41.295193
18130.957031	-39.286354
18174.023438	-38.872044
18217.089844	-41.503376
18260.156250	-43.534336
18303.222656	-43.349113
18346.289062	-40.835442
18389.355469	-38.132797
18432.421875	-37.837360
18475.488281	-40.911884
18518.554688	-44.575142
18561.621094	-43.787262
18604.687500	-45.335819
18647.753906	-43.931072
18690.820312	-40.138927
18733.886719	-38.754948
18776.953125	-39.128220
18820.019531	-39.137402
18863.085938	-36.998795
18906.152344	-35.062782
18949.218750	-35.110767
18992.285156	-36.861889
19035.351562	-39.654610
19078.417969	-43.105347
19121.484375	-47.488194
19164.550781	-42.699734
19207.617188	-40.464119
19250.683594	-41.845226
19293.750000	-47.980141
19336.816406	-47.796356
19379.882812	-41.720409
19422.949219	-38.338299
19466.015625	-36.448841
19509.082031	-36.634266
19552.148438	-40.395012
19595.214844	-43.801365
19638.281250	-43.946827
19681.347656	-44.395279
19724.414062	-47.116421
19767.480469	-48.519718
19810.546875	-46.422539
19853.613281	-47.200687
19896.679688	-48.788422
19939.746094	-46.529442
19982.812500	-42.691277
20025.878906	-40.785305
20068.945312	-42.411945
20112.011719	-47.476818
20155.078125	-50.803009
20198.144531	-49.317326
20241.210938	-46.557133
20284.277344	-43.734486
20327.343750	-43.864937
20370.410156	-45.743973
20413.476562	-46.680248
20456.542969	-45.688473
20499.609375	-43.667076
20542.675781	-43.001106
20585.742188	-43.660580
20628.808594	-43.248035
20671.875000	-42.335838
20714.941406	-41.741463
20758.007812	-41.759686
20801.074219	-44.084503
20844.140625	-48.553944
20887.207031	-45.564770
20930.273438	-41.321033
20973.339844	-40.542931
21016.406250	-43.504292
21059.472656	-47.376884
21102.539062	-46.331783
21145.605469	-44.702976
21188.671875	-44.629383
21231.738281	-46.513718
21274.804688	-47.775574
21317.871094	-49.981117
21360.937500	-52.467796
21404.003906	-53.351040
21447.070312	-51.726204
21490.136719	-51.212097
21533.203125	-47.952126
21576.269531	-44.405769
21619.335938	-42.704479
21662.402344	-42.229202
21705.468750	-44.044144
21748.535156	-47.856739
21791.601562	-48.246502
21834.667969	-48.243996
21877.734375	-48.293121
21920.800781	-47.183666
21963.867188	-46.566254
22006.933594	-46.237320
