周波数 (Hz)	レベル (dB)
43.066406	-27.794592
86.132812	-24.121836
129.199219	-25.501131
172.265625	-32.620571
215.332031	-39.762577
258.398438	-44.251858
301.464844	-43.890285
344.531250	-37.698448
387.597656	-39.752506
430.664062	-38.846920
473.730469	-41.005573
516.796875	-45.816311
559.863281	-44.668575
602.929688	-46.476009
645.996094	-47.070778
689.062500	-48.383095
732.128906	-48.998207
775.195312	-48.813328
818.261719	-46.679401
861.328125	-44.890873
904.394531	-42.240391
947.460938	-41.980740
990.527344	-43.737568
1033.593750	-43.888084
1076.660156	-46.507553
1119.726562	-51.185162
1162.792969	-50.438091
1205.859375	-50.968498
1248.925781	-48.177597
1291.992188	-47.328377
1335.058594	-46.608288
1378.125000	-46.912807
1421.191406	-46.391502
1464.257812	-47.848587
1507.324219	-46.033379
1550.390625	-43.812298
1593.457031	-43.155537
1636.523438	-42.741447
1679.589844	-43.759026
1722.656250	-44.000519
1765.722656	-43.403885
1808.789062	-43.553329
1851.855469	-43.967625
1894.921875	-43.737579
1937.988281	-44.187180
1981.054688	-43.927170
2024.121094	-43.702576
2067.187500	-43.735954
2110.253906	-43.175579
2153.320312	-43.117687
2196.386719	-44.261013
2239.453125	-45.269798
2282.519531	-44.845070
2325.585938	-43.564350
2368.652344	-43.214275
2411.718750	-42.637829
2454.785156	-41.736748
2497.851562	-41.867455
2540.917969	-41.843266
2583.984375	-42.036167
2627.050781	-42.635460
2670.117188	-43.543201
2713.183594	-45.478081
2756.250000	-46.988235
2799.316406	-49.204990
2842.382812	-51.066071
2885.449219	-53.058525
2928.515625	-51.037064
2971.582031	-49.736000
3014.648438	-50.724865
3057.714844	-49.849220
3100.781250	-44.889618
3143.847656	-42.624577
3186.914062	-42.652008
3229.980469	-43.633965
3273.046875	-43.462967
3316.113281	-43.747944
3359.179688	-44.392075
3402.246094	-41.819225
3445.312500	-40.072319
3488.378906	-40.481766
3531.445312	-41.771755
3574.511719	-42.936554
3617.578125	-44.461674
3660.644531	-46.677528
3703.710938	-47.486385
3746.777344	-46.081593
3789.843750	-44.870461
3832.910156	-45.774986
3875.976562	-47.263439
3919.042969	-46.695747
3962.109375	-46.050617
4005.175781	-46.613174
4048.242188	-46.444046
4091.308594	-46.095428
4134.375000	-47.129799
4177.441406	-48.583729
4220.507812	-50.896404
4263.574219	-51.624050
4306.640625	-49.786785
4349.707031	-47.514526
4392.773438	-45.887787
4435.839844	-46.162323
4478.906250	-48.061722
4521.972656	-48.805923
4565.039062	-49.139133
4608.105469	-49.931118
4651.171875	-49.457767
4694.238281	-48.492573
4737.304688	-48.870716
4780.371094	-47.857204
4823.437500	-44.728683
4866.503906	-42.535381
4909.570312	-42.455795
4952.636719	-43.289753
4995.703125	-43.965069
5038.769531	-43.698746
5081.835938	-43.961414
5124.902344	-45.019032
5167.968750	-45.513821
5211.035156	-46.273491
5254.101562	-48.338806
5297.167969	-51.533413
5340.234375	-53.793346
5383.300781	-52.313927
5426.367188	-50.889709
5469.433594	-50.904259
5512.500000	-50.655579
5555.566406	-51.008942
5598.632812	-49.539745
5641.699219	-48.577999
5684.765625	-49.338337
5727.832031	-50.075619
5770.898438	-49.122604
5813.964844	-48.120098
5857.031250	-47.456585
5900.097656	-48.573196
5943.164062	-51.880112
5986.230469	-50.637524
6029.296875	-49.352558
6072.363281	-48.671833
6115.429688	-49.889828
6158.496094	-53.230286
6201.562500	-55.879387
6244.628906	-52.858871
6287.695312	-49.968311
6330.761719	-49.631416
6373.828125	-50.240467
6416.894531	-51.093597
6459.960938	-50.400322
6503.027344	-48.722919
6546.093750	-46.645741
6589.160156	-47.582466
6632.226562	-49.954727
6675.292969	-51.762543
6718.359375	-54.185524
6761.425781	-51.475441
6804.492188	-47.298885
6847.558594	-45.273979
6890.625000	-44.747028
6933.691406	-45.117172
6976.757812	-47.951641
7019.824219	-50.236908
7062.890625	-51.803802
7105.957031	-52.245987
7149.023438	-51.518265
7192.089844	-53.645737
7235.156250	-54.039749
7278.222656	-50.993778
7321.289062	-50.171902
7364.355469	-50.402142
7407.421875	-50.023643
7450.488281	-48.174744
7493.554688	-47.784222
7536.621094	-50.572903
7579.687500	-53.382256
7622.753906	-52.569290
7665.820312	-52.628719
7708.886719	-51.246391
7751.953125	-48.692093
7795.019531	-48.158123
7838.085938	-48.480537
7881.152344	-47.846928
7924.218750	-48.998241
7967.285156	-51.804607
8010.351562	-52.046249
8053.417969	-51.833511
8096.484375	-50.665340
8139.550781	-49.052090
8182.617188	-47.597271
8225.683594	-47.950935
8268.750000	-51.737263
8311.816406	-54.394081
8354.882812	-53.109436
8397.949219	-51.286919
8441.015625	-50.979755
8484.082031	-51.651047
8527.148438	-50.816338
8570.214844	-48.550465
8613.281250	-46.922562
8656.347656	-47.760803
8699.414062	-49.902477
8742.480469	-50.511059
8785.546875	-47.838718
8828.613281	-44.408817
8871.679688	-42.843391
8914.746094	-43.537354
8957.812500	-45.407745
9000.878906	-48.836063
9043.945312	-50.191383
9087.011719	-46.626816
9130.078125	-44.183945
9173.144531	-44.201263
9216.210938	-45.165154
9259.277344	-47.526459
9302.343750	-48.888950
9345.410156	-48.076740
9388.476562	-48.551598
9431.542969	-48.671127
9474.609375	-48.406254
9517.675781	-48.114628
9560.742188	-47.588623
9603.808594	-45.519367
9646.875000	-43.548042
9689.941406	-42.885014
9733.007812	-44.018059
9776.074219	-47.933151
9819.140625	-49.129044
9862.207031	-45.080360
9905.273438	-42.449867
9948.339844	-42.915977
9991.406250	-45.432117
10034.472656	-44.151947
10077.539062	-43.089924
10120.605469	-43.723576
10163.671875	-45.875713
10206.738281	-47.475338
10249.804688	-45.777714
10292.871094	-45.654037
10335.937500	-47.122299
10379.003906	-45.700512
10422.070312	-43.521042
10465.136719	-41.889133
10508.203125	-42.159210
10551.269531	-43.803368
10594.335938	-47.719753
10637.402344	-47.629959
10680.468750	-43.592503
10723.535156	-42.419792
10766.601562	-42.763126
10809.667969	-44.083946
10852.734375	-43.523907
10895.800781	-43.085243
10938.867188	-41.328388
10981.933594	-40.125599
11025.000000	-38.911610
11068.066406	-38.654007
11111.132812	-39.487633
11154.199219	-39.609428
11197.265625	-38.904057
11240.332031	-40.678539
11283.398438	-44.812714
11326.464844	-46.311501
11369.531250	-45.233780
11412.597656	-45.979317
11455.664062	-46.077072
11498.730469	-45.171131
11541.796875	-44.142391
11584.863281	-42.003345
11627.929688	-41.288540
11670.996094	-41.299522
11714.062500	-41.704304
11757.128906	-42.412067
11800.195312	-41.759449
11843.261719	-40.509136
11886.328125	-40.418137
11929.394531	-41.561298
11972.460938	-42.311779
12015.527344	-44.372578
12058.593750	-46.339256
12101.660156	-43.976990
12144.726562	-41.811321
12187.792969	-40.265484
12230.859375	-39.705555
12273.925781	-41.296265
12316.992188	-44.809788
12360.058594	-47.268684
12403.125000	-45.729259
12446.191406	-42.863976
12489.257812	-41.713364
12532.324219	-43.204647
12575.390625	-46.025238
12618.457031	-47.961208
12661.523438	-51.906532
12704.589844	-44.046970
12747.656250	-40.301327
12790.722656	-38.490692
12833.789062	-37.547337
12876.855469	-38.277905
12919.921875	-40.356743
12962.988281	-41.408218
13006.054688	-41.806110
13049.121094	-43.223164
13092.187500	-42.268932
13135.253906	-42.457344
13178.320312	-43.342060
13221.386719	-42.171963
13264.453125	-41.736423
13307.519531	-41.277225
13350.585938	-40.799732
13393.652344	-43.023106
13436.718750	-46.548847
13479.785156	-42.081417
13522.851562	-39.992149
13565.917969	-41.262203
13608.984375	-40.464558
13652.050781	-38.334030
13695.117188	-37.599876
13738.183594	-37.459888
13781.250000	-38.297016
13824.316406	-39.587460
13867.382812	-42.418114
13910.449219	-45.704121
13953.515625	-42.829628
13996.582031	-43.672783
14039.648438	-46.166504
14082.714844	-42.387592
14125.781250	-38.681763
14168.847656	-36.627270
14211.914062	-36.947449
14254.980469	-38.346474
14298.046875	-38.006702
14341.113281	-36.548817
14384.179688	-37.189735
14427.246094	-39.821381
14470.312500	-42.769402
14513.378906	-43.510128
14556.445312	-44.704601
14599.511719	-45.459198
14642.578125	-45.467098
14685.644531	-46.183197
14728.710938	-44.334240
14771.777344	-40.377949
14814.843750	-38.706875
14857.910156	-39.137180
14900.976562	-39.890537
14944.042969	-38.931602
14987.109375	-37.200806
15030.175781	-37.920006
15073.242188	-40.634964
15116.308594	-39.323399
15159.375000	-36.766529
15202.441406	-36.631931
15245.507812	-37.864498
15288.574219	-37.371876
15331.640625	-36.472179
15374.707031	-37.056534
15417.773438	-38.074562
15460.839844	-36.309452
15503.906250	-35.591461
15546.972656	-37.727200
15590.039062	-40.324455
15633.105469	-39.157909
15676.171875	-37.954700
15719.238281	-36.893604
15762.304688	-36.479053
15805.371094	-36.691265
15848.437500	-37.243584
15891.503906	-36.767387
15934.570312	-34.836361
15977.636719	-34.908466
16020.703125	-36.313343
16063.769531	-36.393204
16106.835938	-36.613842
16149.902344	-36.063992
16192.968750	-33.961502
16236.035156	-33.349300
16279.101562	-34.352455
16322.167969	-35.425587
16365.234375	-36.675823
16408.300781	-36.655075
16451.367188	-33.969368
16494.433594	-32.819237
16537.500000	-33.984215
16580.566406	-34.189259
16623.632812	-32.953156
16666.699219	-33.817303
16709.765625	-35.353275
16752.832031	-35.842285
16795.898438	-36.314514
16838.964844	-36.219158
16882.031250	-36.862843
16925.097656	-36.506424
16968.164062	-33.481815
17011.230469	-31.569572
17054.296875	-30.766144
17097.363281	-31.115896
17140.429688	-31.709980
17183.496094	-33.206760
17226.562500	-36.355167
17269.628906	-37.218971
17312.695312	-34.802269
17355.761719	-33.717693
17398.828125	-32.065342
17441.894531	-32.735325
17484.960938	-36.888046
17528.027344	-35.847534
17571.093750	-34.360783
17614.160156	-35.300724
17657.226562	-35.727131
17700.292969	-36.874607
17743.359375	-38.588776
17786.425781	-37.401535
17829.492188	-35.464867
17872.558594	-34.315338
17915.625000	-32.118893
17958.691406	-31.404787
18001.757812	-32.143135
18044.824219	-33.435223
18087.890625	-36.225636
18130.957031	-40.652145
18174.023438	-36.471077
18217.089844	-34.133484
18260.156250	-34.469921
18303.222656	-33.640800
18346.289062	-33.541687
18389.355469	-34.342983
18432.421875	-36.234821
18475.488281	-37.985699
18518.554688	-37.533276
18561.621094	-38.003849
18604.687500	-38.273758
18647.753906	-37.791992
18690.820312	-38.485741
18733.886719	-39.545780
18776.953125	-38.110260
18820.019531	-37.137386
18863.085938	-37.630486
18906.152344	-37.955097
18949.218750	-38.937775
18992.285156	-39.440971
19035.351562	-38.814373
19078.417969	-38.532772
19121.484375	-38.209190
19164.550781	-35.277714
19207.617188	-34.221542
19250.683594	-36.969307
19293.750000	-39.574318
19336.816406	-35.348518
19379.882812	-34.135933
19422.949219	-34.977478
19466.015625	-38.290741
19509.082031	-43.624172
19552.148438	-41.809021
19595.214844	-36.496441
19638.281250	-35.612358
19681.347656	-35.413239
19724.414062	-35.472176
19767.480469	-35.837284
19810.546875	-36.126667
19853.613281	-36.042046
19896.679688	-35.225540
19939.746094	-34.936867
19982.812500	-35.345490
20025.878906	-35.257835
20068.945312	-35.996593
20112.011719	-38.949772
20155.078125	-38.889404
20198.144531	-36.538418
20241.210938	-36.093674
20284.277344	-38.542534
20327.343750	-43.666889
20370.410156	-45.462093
20413.476562	-45.400799
20456.542969	-43.395512
20499.609375	-41.627674
20542.675781	-41.815704
20585.742188	-44.198681
20628.808594	-49.324158
20671.875000	-50.125175
20714.941406	-47.874454
20758.007812	-46.398357
20801.074219	-43.636589
20844.140625	-41.774811
20887.207031	-42.540718
20930.273438	-44.216526
20973.339844	-44.836880
21016.406250	-44.520206
21059.472656	-42.977512
21102.539062	-42.521973
21145.605469	-43.825188
21188.671875	-45.722378
21231.738281	-45.163651
21274.804688	-44.576786
21317.871094	-45.436035
21360.937500	-43.710918
21404.003906	-42.838875
21447.070312	-44.527416
21490.136719	-46.912922
21533.203125	-45.544941
21576.269531	-43.027607
21619.335938	-41.632988
21662.402344	-40.737007
21705.468750	-40.722958
21748.535156	-43.528305
21791.601562	-47.788120
21834.667969	-47.718781
21877.734375	-44.687664
21920.800781	-42.648975
21963.867188	-41.520542
22006.933594	-40.731354
