周波数 (Hz)	レベル (dB)
43.066406	-29.073238
86.132812	-25.373995
129.199219	-26.619520
172.265625	-34.240597
215.332031	-42.148590
258.398438	-46.638573
301.464844	-44.363037
344.531250	-40.015316
387.597656	-39.887245
430.664062	-40.302479
473.730469	-43.295792
516.796875	-49.226982
559.863281	-48.277214
602.929688	-51.931435
645.996094	-53.927437
689.062500	-52.864910
732.128906	-53.415943
775.195312	-59.172436
818.261719	-50.580143
861.328125	-46.988850
904.394531	-44.520832
947.460938	-43.942772
990.527344	-44.397556
1033.593750	-45.290230
1076.660156	-46.624702
1119.726562	-47.507999
1162.792969	-49.195625
1205.859375	-51.475643
1248.925781	-51.272385
1291.992188	-48.741692
1335.058594	-45.978497
1378.125000	-45.784863
1421.191406	-47.669838
1464.257812	-52.152180
1507.324219	-50.095779
1550.390625	-43.584934
1593.457031	-39.530670
1636.523438	-37.875950
1679.589844	-38.987953
1722.656250	-42.536472
1765.722656	-46.560867
1808.789062	-48.452095
1851.855469	-48.866856
1894.921875	-48.507015
1937.988281	-50.552090
1981.054688	-51.467854
2024.121094	-51.628067
2067.187500	-48.057045
2110.253906	-44.256168
2153.320312	-42.245960
2196.386719	-41.527096
2239.453125	-42.538475
2282.519531	-45.476746
2325.585938	-48.026608
2368.652344	-45.478165
2411.718750	-42.488991
2454.785156	-41.997955
2497.851562	-44.072113
2540.917969	-49.312977
2583.984375	-50.467258
2627.050781	-51.011532
2670.117188	-50.611301
2713.183594	-48.847538
2756.250000	-50.088467
2799.316406	-53.526886
2842.382812	-49.980354
2885.449219	-46.179745
2928.515625	-44.290852
2971.582031	-42.817650
3014.648438	-41.994366
3057.714844	-42.650822
3100.781250	-45.590149
3143.847656	-47.287041
3186.914062	-45.406704
3229.980469	-42.429939
3273.046875	-40.802368
3316.113281	-41.247055
3359.179688	-43.057236
3402.246094	-44.921253
3445.312500	-46.771763
3488.378906	-50.598377
3531.445312	-53.566059
3574.511719	-54.665031
3617.578125	-52.006992
3660.644531	-50.392815
3703.710938	-51.011768
3746.777344	-51.264683
3789.843750	-49.669346
3832.910156	-49.859798
3875.976562	-52.140911
3919.042969	-54.403061
3962.109375	-53.612831
4005.175781	-50.287907
4048.242188	-47.583988
4091.308594	-45.941753
4134.375000	-46.359661
4177.441406	-46.860744
4220.507812	-45.845745
4263.574219	-43.990997
4306.640625	-43.240124
4349.707031	-44.890400
4392.773438	-48.630985
4435.839844	-52.124031
4478.906250	-50.899940
4521.972656	-48.937916
4565.039062	-49.624825
4608.105469	-50.238132
4651.171875	-48.802559
4694.238281	-49.039639
4737.304688	-49.551426
4780.371094	-49.140453
4823.437500	-47.370743
4866.503906	-48.030891
4909.570312	-49.833740
4952.636719	-49.848675
4995.703125	-49.127758
5038.769531	-49.843517
5081.835938	-53.348675
5124.902344	-54.789902
5167.968750	-54.981308
5211.035156	-55.612125
5254.101562	-53.058262
5297.167969	-50.961739
5340.234375	-50.030613
5383.300781	-50.136837
5426.367188	-50.171101
5469.433594	-50.246002
5512.500000	-51.939613
5555.566406	-53.773518
5598.632812	-51.098198
5641.699219	-48.972652
5684.765625	-48.287926
5727.832031	-48.563126
5770.898438	-50.798847
5813.964844	-53.084389
5857.031250	-53.070049
5900.097656	-53.046257
5943.164062	-50.686745
5986.230469	-49.280609
6029.296875	-51.759789
6072.363281	-54.185806
6115.429688	-51.625721
6158.496094	-50.525570
6201.562500	-51.162918
6244.628906	-51.408485
6287.695312	-49.265282
6330.761719	-48.968174
6373.828125	-50.487385
6416.894531	-50.488712
6459.960938	-50.258064
6503.027344	-51.821922
6546.093750	-53.346123
6589.160156	-55.541672
6632.226562	-57.064175
6675.292969	-56.859970
6718.359375	-54.036667
6761.425781	-51.122635
6804.492188	-50.107780
6847.558594	-52.490227
6890.625000	-54.126144
6933.691406	-51.459595
6976.757812	-48.832222
7019.824219	-49.171722
7062.890625	-52.000992
7105.957031	-51.717369
7149.023438	-47.530540
7192.089844	-45.979603
7235.156250	-47.057091
7278.222656	-49.068230
7321.289062	-48.463745
7364.355469	-47.910473
7407.421875	-48.415451
7450.488281	-49.036003
7493.554688	-48.466160
7536.621094	-48.029869
7579.687500	-48.356358
7622.753906	-49.239830
7665.820312	-52.103138
7708.886719	-56.056778
7751.953125	-58.136482
7795.019531	-56.808922
7838.085938	-54.647762
7881.152344	-52.125851
7924.218750	-51.438961
7967.285156	-54.033390
8010.351562	-53.615788
8053.417969	-51.314526
8096.484375	-52.068413
8139.550781	-55.083366
8182.617188	-52.993824
8225.683594	-50.217934
8268.750000	-48.593323
8311.816406	-47.061573
8354.882812	-47.153564
8397.949219	-50.082428
8441.015625	-51.207630
8484.082031	-50.569271
8527.148438	-51.484791
8570.214844	-53.536701
8613.281250	-54.514568
8656.347656	-52.258572
8699.414062	-49.358154
8742.480469	-47.855827
8785.546875	-48.374577
8828.613281	-49.514141
8871.679688	-51.471767
8914.746094	-52.644169
8957.812500	-54.356304
9000.878906	-52.828560
9043.945312	-47.382587
9087.011719	-45.168194
9130.078125	-44.950191
9173.144531	-46.213848
9216.210938	-48.417751
9259.277344	-48.929996
9302.343750	-49.785984
9345.410156	-51.825058
9388.476562	-55.193851
9431.542969	-55.572243
9474.609375	-50.648960
9517.675781	-48.407974
9560.742188	-48.508816
9603.808594	-49.023872
9646.875000	-48.684067
9689.941406	-46.835072
9733.007812	-41.957256
9776.074219	-39.410656
9819.140625	-40.177670
9862.207031	-43.142487
9905.273438	-45.576424
9948.339844	-45.364544
9991.406250	-44.475266
10034.472656	-44.712170
10077.539062	-45.746765
10120.605469	-45.175453
10163.671875	-45.878479
10206.738281	-47.307903
10249.804688	-46.037651
10292.871094	-46.804890
10335.937500	-48.392944
10379.003906	-48.208298
10422.070312	-47.448765
10465.136719	-45.747757
10508.203125	-45.612240
10551.269531	-48.744774
10594.335938	-49.600803
10637.402344	-49.111229
10680.468750	-49.192833
10723.535156	-48.360535
10766.601562	-48.852802
10809.667969	-48.442440
10852.734375	-49.071716
10895.800781	-48.125965
10938.867188	-46.183540
10981.933594	-46.386940
11025.000000	-49.098328
11068.066406	-49.670742
11111.132812	-50.768936
11154.199219	-49.755501
11197.265625	-47.335640
11240.332031	-46.130692
11283.398438	-44.119648
11326.464844	-42.488953
11369.531250	-43.266823
11412.597656	-46.034809
11455.664062	-45.859383
11498.730469	-43.734943
11541.796875	-42.678757
11584.863281	-42.748772
11627.929688	-43.727009
11670.996094	-46.944229
11714.062500	-50.026829
11757.128906	-44.820034
11800.195312	-43.527458
11843.261719	-44.393772
11886.328125	-46.479206
11929.394531	-47.801311
11972.460938	-49.033062
12015.527344	-49.027908
12058.593750	-45.731796
12101.660156	-43.722866
12144.726562	-42.736027
12187.792969	-41.558422
12230.859375	-41.100338
12273.925781	-42.950211
12316.992188	-45.345047
12360.058594	-42.257011
12403.125000	-40.482960
12446.191406	-41.205414
12489.257812	-43.241440
12532.324219	-47.120377
12575.390625	-50.137695
12618.457031	-48.415203
12661.523438	-47.785389
12704.589844	-48.872398
12747.656250	-50.607861
12790.722656	-50.669247
12833.789062	-48.493774
12876.855469	-44.208557
12919.921875	-41.760746
12962.988281	-40.427429
13006.054688	-41.298466
13049.121094	-43.603268
13092.187500	-43.420097
13135.253906	-41.804707
13178.320312	-41.830082
13221.386719	-42.112003
13264.453125	-42.463337
13307.519531	-44.831497
13350.585938	-45.923126
13393.652344	-46.653809
13436.718750	-48.700840
13479.785156	-43.644321
13522.851562	-40.991306
13565.917969	-38.925442
13608.984375	-37.160767
13652.050781	-36.993507
13695.117188	-36.840115
13738.183594	-37.321918
13781.250000	-39.050880
13824.316406	-40.934765
13867.382812	-42.296383
13910.449219	-41.687340
13953.515625	-40.675579
13996.582031	-39.946709
14039.648438	-39.270138
14082.714844	-39.114857
14125.781250	-39.919147
14168.847656	-41.650475
14211.914062	-42.715397
14254.980469	-39.404343
14298.046875	-36.541065
14341.113281	-36.870518
14384.179688	-41.662918
14427.246094	-47.040562
14470.312500	-40.777897
14513.378906	-39.509796
14556.445312	-41.961361
14599.511719	-45.352478
14642.578125	-46.022655
14685.644531	-40.366077
14728.710938	-36.365868
14771.777344	-35.796574
14814.843750	-37.754143
14857.910156	-41.536312
14900.976562	-43.083431
14944.042969	-42.049076
14987.109375	-42.064304
15030.175781	-43.613300
15073.242188	-47.510208
15116.308594	-48.528111
15159.375000	-46.944569
15202.441406	-46.940323
15245.507812	-47.385353
15288.574219	-44.345211
15331.640625	-39.833076
15374.707031	-37.297230
15417.773438	-37.302090
15460.839844	-40.530491
15503.906250	-43.913551
15546.972656	-40.721230
15590.039062	-37.764557
15633.105469	-36.986900
15676.171875	-37.295021
15719.238281	-38.091030
15762.304688	-39.169338
15805.371094	-40.636055
15848.437500	-43.053612
15891.503906	-43.053131
15934.570312	-40.007538
15977.636719	-35.278595
16020.703125	-32.963390
16063.769531	-34.241383
16106.835938	-40.411514
16149.902344	-40.516220
16192.968750	-37.266369
16236.035156	-33.966629
16279.101562	-31.981178
16322.167969	-33.331280
16365.234375	-37.818970
16408.300781	-38.243320
16451.367188	-33.928436
16494.433594	-33.477299
16537.500000	-34.944954
16580.566406	-34.750324
16623.632812	-34.661667
16666.699219	-35.324982
16709.765625	-35.874252
16752.832031	-36.783768
16795.898438	-37.463417
16838.964844	-38.902584
16882.031250	-40.060032
16925.097656	-36.083801
16968.164062	-33.046616
17011.230469	-31.842794
17054.296875	-31.263134
17097.363281	-30.913948
17140.429688	-31.687532
17183.496094	-34.510700
17226.562500	-38.913601
17269.628906	-41.436275
17312.695312	-39.743126
17355.761719	-36.048313
17398.828125	-34.236248
17441.894531	-34.195156
17484.960938	-34.117085
17528.027344	-33.595154
17571.093750	-34.801266
17614.160156	-36.962738
17657.226562	-37.167271
17700.292969	-37.578362
17743.359375	-41.100189
17786.425781	-45.608418
17829.492188	-41.385868
17872.558594	-37.745831
17915.625000	-36.428715
17958.691406	-37.159836
18001.757812	-38.084648
18044.824219	-36.682987
18087.890625	-34.820412
18130.957031	-35.141354
18174.023438	-37.049400
18217.089844	-37.334049
18260.156250	-37.834667
18303.222656	-39.861641
18346.289062	-41.832420
18389.355469	-42.358215
18432.421875	-41.065086
18475.488281	-39.774200
18518.554688	-37.538494
18561.621094	-36.377090
18604.687500	-36.534855
18647.753906	-38.042152
18690.820312	-40.526878
18733.886719	-43.474411
18776.953125	-45.552620
18820.019531	-44.385315
18863.085938	-42.827499
18906.152344	-41.712234
18949.218750	-40.347263
18992.285156	-39.692707
19035.351562	-41.224205
19078.417969	-41.146469
19121.484375	-38.319237
19164.550781	-38.201172
19207.617188	-39.304810
19250.683594	-40.406803
19293.750000	-39.969116
19336.816406	-39.656002
19379.882812	-40.454342
19422.949219	-41.424095
19466.015625	-38.914410
19509.082031	-36.552814
19552.148438	-38.874352
19595.214844	-43.469795
19638.281250	-38.909153
19681.347656	-38.663113
19724.414062	-41.980297
19767.480469	-42.764687
19810.546875	-41.670452
19853.613281	-42.892967
19896.679688	-44.118515
19939.746094	-44.853603
19982.812500	-45.670887
20025.878906	-46.600548
20068.945312	-46.177933
20112.011719	-42.954193
20155.078125	-41.971592
20198.144531	-43.340504
20241.210938	-45.032291
20284.277344	-45.568745
20327.343750	-45.007088
20370.410156	-45.401260
20413.476562	-47.230633
20456.542969	-49.043713
20499.609375	-52.076599
20542.675781	-49.697151
20585.742188	-47.163021
20628.808594	-48.174988
20671.875000	-50.903137
20714.941406	-52.787220
20758.007812	-49.429008
20801.074219	-44.579357
20844.140625	-41.481247
20887.207031	-40.271793
20930.273438	-40.052307
20973.339844	-39.901417
21016.406250	-39.901806
21059.472656	-41.107925
21102.539062	-44.051739
21145.605469	-46.987194
21188.671875	-50.336082
21231.738281	-50.562881
21274.804688	-47.539753
21317.871094	-45.404125
21360.937500	-45.089115
21404.003906	-45.608177
21447.070312	-47.130527
21490.136719	-47.603378
21533.203125	-46.055035
21576.269531	-45.535103
21619.335938	-46.408127
21662.402344	-47.344353
21705.468750	-47.886532
21748.535156	-49.034992
21791.601562	-50.086193
21834.667969	-50.268959
21877.734375	-50.840240
21920.800781	-51.882080
21963.867188	-52.750618
22006.933594	-53.785034
