周波数 (Hz)	レベル (dB)
43.066406	-29.933123
86.132812	-28.594683
129.199219	-30.601465
172.265625	-36.897495
215.332031	-40.617096
258.398438	-44.834782
301.464844	-47.158951
344.531250	-47.256100
387.597656	-45.712067
430.664062	-48.012814
473.730469	-51.464962
516.796875	-54.893162
559.863281	-55.905769
602.929688	-56.352161
645.996094	-57.702721
689.062500	-57.851315
732.128906	-58.180302
775.195312	-58.398769
818.261719	-58.070389
861.328125	-59.681404
904.394531	-61.561253
947.460938	-59.177784
990.527344	-58.649303
1033.593750	-57.578175
1076.660156	-56.175224
1119.726562	-55.046215
1162.792969	-57.195702
1205.859375	-58.796253
1248.925781	-54.713253
1291.992188	-52.191078
1335.058594	-54.015755
1378.125000	-57.831612
1421.191406	-61.229469
1464.257812	-61.944298
1507.324219	-59.590515
1550.390625	-58.378544
1593.457031	-58.276634
1636.523438	-57.601738
1679.589844	-56.654224
1722.656250	-56.434334
1765.722656	-56.728146
1808.789062	-55.846992
1851.855469	-55.811966
1894.921875	-54.960999
1937.988281	-52.847755
1981.054688	-53.515541
2024.121094	-53.866093
2067.187500	-55.045948
2110.253906	-54.845932
2153.320312	-54.817669
2196.386719	-57.166893
2239.453125	-55.297630
2282.519531	-50.678097
2325.585938	-48.086014
2368.652344	-48.564251
2411.718750	-51.331299
2454.785156	-53.707069
2497.851562	-52.059299
2540.917969	-53.561111
2583.984375	-54.448505
2627.050781	-52.689903
2670.117188	-51.354633
2713.183594	-50.976082
2756.250000	-51.941185
2799.316406	-53.083157
2842.382812	-51.212337
2885.449219	-52.178604
2928.515625	-53.717243
2971.582031	-51.824535
3014.648438	-51.063271
3057.714844	-51.318188
3100.781250	-50.945850
3143.847656	-50.541809
3186.914062	-48.831039
3229.980469	-48.628777
3273.046875	-50.236961
3316.113281	-49.059837
3359.179688	-49.713402
3402.246094	-50.960476
3445.312500	-50.361446
3488.378906	-50.771954
3531.445312	-48.450092
3574.511719	-46.499039
3617.578125	-47.073845
3660.644531	-47.687405
3703.710938	-48.443047
3746.777344	-46.129871
3789.843750	-46.084591
3832.910156	-46.471516
3875.976562	-48.972805
3919.042969	-52.047371
3962.109375	-52.848450
4005.175781	-53.057922
4048.242188	-54.310257
4091.308594	-52.622299
4134.375000	-53.459301
4177.441406	-53.382648
4220.507812	-50.342113
4263.574219	-49.625446
4306.640625	-49.408585
4349.707031	-51.179424
4392.773438	-52.502026
4435.839844	-52.763954
4478.906250	-52.187218
4521.972656	-50.348667
4565.039062	-51.067974
4608.105469	-54.092117
4651.171875	-52.724964
4694.238281	-51.783646
4737.304688	-52.924892
4780.371094	-54.841801
4823.437500	-53.850708
4866.503906	-53.769123
4909.570312	-53.623924
4952.636719	-53.094303
4995.703125	-52.423531
5038.769531	-51.542183
5081.835938	-51.462498
5124.902344	-52.942204
5167.968750	-53.949276
5211.035156	-53.524567
5254.101562	-52.645279
5297.167969	-53.516850
5340.234375	-55.268894
5383.300781	-54.825706
5426.367188	-53.600163
5469.433594	-50.987148
5512.500000	-52.634369
5555.566406	-54.708767
5598.632812	-55.987934
5641.699219	-56.228951
5684.765625	-54.915092
5727.832031	-54.834312
5770.898438	-55.754341
5813.964844	-53.105827
5857.031250	-53.257626
5900.097656	-53.674057
5943.164062	-53.166615
5986.230469	-52.378204
6029.296875	-53.666527
6072.363281	-54.091122
6115.429688	-57.496788
6158.496094	-57.559685
6201.562500	-55.890736
6244.628906	-55.697742
6287.695312	-55.221916
6330.761719	-53.414806
6373.828125	-52.529888
6416.894531	-51.902351
6459.960938	-52.914730
6503.027344	-53.417938
6546.093750	-52.082233
6589.160156	-50.934158
6632.226562	-52.777218
6675.292969	-55.980438
6718.359375	-55.305641
6761.425781	-56.500896
6804.492188	-56.698612
6847.558594	-58.904133
6890.625000	-58.152081
6933.691406	-54.870792
6976.757812	-53.478977
7019.824219	-53.272850
7062.890625	-53.005470
7105.957031	-51.277870
7149.023438	-50.652496
7192.089844	-49.991810
7235.156250	-49.256580
7278.222656	-49.704338
7321.289062	-52.354122
7364.355469	-53.091232
7407.421875	-52.053329
7450.488281	-52.562542
7493.554688	-52.000881
7536.621094	-52.228016
7579.687500	-56.270081
7622.753906	-59.599785
7665.820312	-56.585873
7708.886719	-52.675838
7751.953125	-50.820873
7795.019531	-53.729420
7838.085938	-55.279747
7881.152344	-55.396328
7924.218750	-55.821281
7967.285156	-54.667519
8010.351562	-54.377731
8053.417969	-54.019646
8096.484375	-54.659729
8139.550781	-57.686378
8182.617188	-58.040886
8225.683594	-55.780281
8268.750000	-54.733612
8311.816406	-54.578171
8354.882812	-55.822418
8397.949219	-54.126228
8441.015625	-55.214878
8484.082031	-57.172642
8527.148438	-57.522388
8570.214844	-57.439117
8613.281250	-57.493259
8656.347656	-55.530575
8699.414062	-55.887814
8742.480469	-56.745724
8785.546875	-56.386303
8828.613281	-56.952999
8871.679688	-56.486404
8914.746094	-56.365772
8957.812500	-55.888290
9000.878906	-55.323498
9043.945312	-55.668087
9087.011719	-55.938126
9130.078125	-56.517693
9173.144531	-55.049446
9216.210938	-53.808868
9259.277344	-52.511642
9302.343750	-52.970814
9345.410156	-54.054195
9388.476562	-54.741112
9431.542969	-55.828407
9474.609375	-56.467777
9517.675781	-57.289238
9560.742188	-53.216663
9603.808594	-51.429211
9646.875000	-52.925999
9689.941406	-53.042675
9733.007812	-53.823788
9776.074219	-53.193695
9819.140625	-51.450066
9862.207031	-53.132179
9905.273438	-54.283279
9948.339844	-53.529457
9991.406250	-51.990940
10034.472656	-48.773098
10077.539062	-48.326103
10120.605469	-49.156330
10163.671875	-50.295982
10206.738281	-51.777908
10249.804688	-50.259132
10292.871094	-47.643024
10335.937500	-46.138866
10379.003906	-46.161240
10422.070312	-47.273258
10465.136719	-49.209248
10508.203125	-49.728577
10551.269531	-49.773346
10594.335938	-49.519569
10637.402344	-49.443134
10680.468750	-49.313580
10723.535156	-50.032600
10766.601562	-50.862000
10809.667969	-48.887165
10852.734375	-48.140522
10895.800781	-48.627377
10938.867188	-47.578503
10981.933594	-46.233234
11025.000000	-47.246887
11068.066406	-48.758789
11111.132812	-49.385529
11154.199219	-48.603657
11197.265625	-48.309456
11240.332031	-49.043888
11283.398438	-50.805931
11326.464844	-49.712132
11369.531250	-49.188259
11412.597656	-50.581657
11455.664062	-52.025799
11498.730469	-51.654427
11541.796875	-51.564640
11584.863281	-50.612373
11627.929688	-51.297199
11670.996094	-53.126549
11714.062500	-52.182022
11757.128906	-49.931763
11800.195312	-49.136444
11843.261719	-49.069950
11886.328125	-49.935665
11929.394531	-49.174301
11972.460938	-48.829468
12015.527344	-49.845551
12058.593750	-51.629326
12101.660156	-50.984489
12144.726562	-49.437862
12187.792969	-49.759785
12230.859375	-51.130291
12273.925781	-52.825268
12316.992188	-51.738667
12360.058594	-48.190563
12403.125000	-47.076252
12446.191406	-50.655602
12489.257812	-50.437065
12532.324219	-47.742180
12575.390625	-46.680069
12618.457031	-46.936657
12661.523438	-48.698193
12704.589844	-50.167297
12747.656250	-51.283386
12790.722656	-49.854839
12833.789062	-47.549938
12876.855469	-46.438129
12919.921875	-46.812340
12962.988281	-47.043133
13006.054688	-46.972515
13049.121094	-48.102806
13092.187500	-48.693047
13135.253906	-48.794666
13178.320312	-49.419292
13221.386719	-46.778767
13264.453125	-45.300404
13307.519531	-46.841148
13350.585938	-47.602955
13393.652344	-47.894093
13436.718750	-46.016201
13479.785156	-44.328373
13522.851562	-45.489731
13565.917969	-44.975033
13608.984375	-45.032207
13652.050781	-45.266277
13695.117188	-45.051815
13738.183594	-45.546131
13781.250000	-47.197132
13824.316406	-45.118313
13867.382812	-44.266994
13910.449219	-45.891945
13953.515625	-46.817280
13996.582031	-46.109333
14039.648438	-47.175022
14082.714844	-46.145741
14125.781250	-46.022057
14168.847656	-48.389519
14211.914062	-47.686176
14254.980469	-45.656826
14298.046875	-45.070747
14341.113281	-45.111755
14384.179688	-44.955593
14427.246094	-43.603767
14470.312500	-43.901371
14513.378906	-46.162292
14556.445312	-48.130993
14599.511719	-49.870487
14642.578125	-49.278473
14685.644531	-47.181423
14728.710938	-46.234062
14771.777344	-44.143539
14814.843750	-44.275261
14857.910156	-45.344776
14900.976562	-45.216209
14944.042969	-44.754753
14987.109375	-44.684410
15030.175781	-44.983566
15073.242188	-44.449577
15116.308594	-44.553635
15159.375000	-44.138119
15202.441406	-42.248280
15245.507812	-41.722874
15288.574219	-43.149891
15331.640625	-44.921284
15374.707031	-45.198364
15417.773438	-44.227310
15460.839844	-44.238281
15503.906250	-46.290325
15546.972656	-47.593403
15590.039062	-47.155094
15633.105469	-46.705734
15676.171875	-45.379417
15719.238281	-45.402164
15762.304688	-45.515152
15805.371094	-42.731693
15848.437500	-42.259632
15891.503906	-42.529243
15934.570312	-42.452625
15977.636719	-43.790684
16020.703125	-43.340729
16063.769531	-40.898815
16106.835938	-40.809834
16149.902344	-41.769211
16192.968750	-41.184269
16236.035156	-38.650341
16279.101562	-39.859299
16322.167969	-41.789909
16365.234375	-41.877628
16408.300781	-43.032932
16451.367188	-45.289570
16494.433594	-45.375763
16537.500000	-44.003426
16580.566406	-41.293541
16623.632812	-40.404118
16666.699219	-40.295383
16709.765625	-43.487820
16752.832031	-45.010124
16795.898438	-44.665314
16838.964844	-43.464310
16882.031250	-42.755890
16925.097656	-43.717785
16968.164062	-43.623024
17011.230469	-42.681160
17054.296875	-42.366978
17097.363281	-44.217503
17140.429688	-44.559666
17183.496094	-44.176147
17226.562500	-46.111565
17269.628906	-47.644962
17312.695312	-45.717415
17355.761719	-44.872654
17398.828125	-46.017181
17441.894531	-46.166553
17484.960938	-47.006512
17528.027344	-45.938702
17571.093750	-44.700237
17614.160156	-43.791908
17657.226562	-45.898598
17700.292969	-46.560833
17743.359375	-45.224274
17786.425781	-43.137936
17829.492188	-42.339333
17872.558594	-43.139481
17915.625000	-44.835621
17958.691406	-45.538795
18001.757812	-45.185566
18044.824219	-44.181366
18087.890625	-42.816864
18130.957031	-43.773357
18174.023438	-43.441414
18217.089844	-45.207275
18260.156250	-43.763214
18303.222656	-44.237350
18346.289062	-45.200035
18389.355469	-45.669838
18432.421875	-46.396915
18475.488281	-48.094410
18518.554688	-45.126678
18561.621094	-43.671822
18604.687500	-44.360722
18647.753906	-44.704350
18690.820312	-44.244633
18733.886719	-44.761650
18776.953125	-43.623978
18820.019531	-42.443859
18863.085938	-42.937813
18906.152344	-42.182014
18949.218750	-44.509571
18992.285156	-45.513744
19035.351562	-46.340157
19078.417969	-46.931164
19121.484375	-44.243767
19164.550781	-44.552261
19207.617188	-45.733440
19250.683594	-45.099762
19293.750000	-44.994129
19336.816406	-45.374924
19379.882812	-46.068771
19422.949219	-45.880890
19466.015625	-45.440056
19509.082031	-45.743851
19552.148438	-45.513809
19595.214844	-46.535084
19638.281250	-48.114918
19681.347656	-48.336750
19724.414062	-46.946575
19767.480469	-44.214985
19810.546875	-43.198074
19853.613281	-43.637661
19896.679688	-43.307030
19939.746094	-42.716972
19982.812500	-43.333706
20025.878906	-43.886681
20068.945312	-43.393070
20112.011719	-44.723289
20155.078125	-45.793369
20198.144531	-44.304592
20241.210938	-45.035637
20284.277344	-45.938728
20327.343750	-45.976109
20370.410156	-46.175541
20413.476562	-45.498043
20456.542969	-46.049957
20499.609375	-46.569153
20542.675781	-45.410496
20585.742188	-45.877918
20628.808594	-47.162716
20671.875000	-48.880238
20714.941406	-49.169014
20758.007812	-48.091335
20801.074219	-46.492004
20844.140625	-48.152908
20887.207031	-48.456932
20930.273438	-46.558674
20973.339844	-47.157917
21016.406250	-46.762672
21059.472656	-47.405743
21102.539062	-47.447021
21145.605469	-47.654720
21188.671875	-49.071449
21231.738281	-49.477146
21274.804688	-49.667980
21317.871094	-50.129086
21360.937500	-50.563358
21404.003906	-51.510166
21447.070312	-50.779190
21490.136719	-49.865387
21533.203125	-48.831276
21576.269531	-49.300106
21619.335938	-50.085258
21662.402344	-50.786854
21705.468750	-51.580769
21748.535156	-51.622837
21791.601562	-51.516563
21834.667969	-52.553551
21877.734375	-52.837288
21920.800781	-52.340488
21963.867188	-53.156067
22006.933594	-54.479267
