周波数 (Hz)	レベル (dB)
43.066406	-31.698519
86.132812	-26.884920
129.199219	-28.428486
172.265625	-35.104969
215.332031	-40.248188
258.398438	-47.105904
301.464844	-44.340977
344.531250	-43.596424
387.597656	-41.488029
430.664062	-43.993614
473.730469	-49.432358
516.796875	-49.874481
559.863281	-50.580559
602.929688	-52.333904
645.996094	-57.734333
689.062500	-59.371368
732.128906	-59.785957
775.195312	-57.754387
818.261719	-56.316307
861.328125	-56.376041
904.394531	-57.608463
947.460938	-60.102131
990.527344	-58.573593
1033.593750	-57.408859
1076.660156	-59.029446
1119.726562	-60.266056
1162.792969	-58.708508
1205.859375	-58.203621
1248.925781	-57.329872
1291.992188	-53.801506
1335.058594	-52.188366
1378.125000	-54.429333
1421.191406	-55.339645
1464.257812	-54.292007
1507.324219	-54.756828
1550.390625	-51.110577
1593.457031	-51.789097
1636.523438	-51.835838
1679.589844	-48.075359
1722.656250	-48.641388
1765.722656	-52.459045
1808.789062	-53.879158
1851.855469	-52.931816
1894.921875	-52.802223
1937.988281	-51.661537
1981.054688	-51.981243
2024.121094	-55.026829
2067.187500	-55.392200
2110.253906	-55.218208
2153.320312	-56.034096
2196.386719	-56.132816
2239.453125	-55.564663
2282.519531	-52.207348
2325.585938	-48.771130
2368.652344	-48.912037
2411.718750	-50.270023
2454.785156	-53.156055
2497.851562	-54.738235
2540.917969	-50.938988
2583.984375	-51.295334
2627.050781	-53.614811
2670.117188	-50.868443
2713.183594	-52.494324
2756.250000	-53.515556
2799.316406	-53.298370
2842.382812	-51.852707
2885.449219	-47.974464
2928.515625	-46.960655
2971.582031	-48.455780
3014.648438	-49.630577
3057.714844	-49.348194
3100.781250	-48.913181
3143.847656	-47.336834
3186.914062	-46.371384
3229.980469	-47.394993
3273.046875	-49.224464
3316.113281	-50.478443
3359.179688	-47.422817
3402.246094	-45.714153
3445.312500	-47.809780
3488.378906	-50.454132
3531.445312	-48.324528
3574.511719	-45.422722
3617.578125	-46.546909
3660.644531	-48.899311
3703.710938	-50.450035
3746.777344	-51.142796
3789.843750	-50.950886
3832.910156	-50.664066
3875.976562	-49.302238
3919.042969	-47.815926
3962.109375	-49.004532
4005.175781	-51.793056
4048.242188	-54.093784
4091.308594	-55.725296
4134.375000	-55.302914
4177.441406	-51.899502
4220.507812	-51.368263
4263.574219	-54.643883
4306.640625	-55.045143
4349.707031	-53.814716
4392.773438	-55.337795
4435.839844	-54.825916
4478.906250	-54.992233
4521.972656	-51.512993
4565.039062	-50.506725
4608.105469	-54.480408
4651.171875	-56.670261
4694.238281	-56.789207
4737.304688	-55.989822
4780.371094	-52.645084
4823.437500	-53.011925
4866.503906	-52.152496
4909.570312	-53.546230
4952.636719	-53.576981
4995.703125	-52.532429
5038.769531	-51.568172
5081.835938	-51.873867
5124.902344	-55.390846
5167.968750	-56.091877
5211.035156	-54.178471
5254.101562	-52.636742
5297.167969	-51.863426
5340.234375	-54.672047
5383.300781	-54.722183
5426.367188	-53.072258
5469.433594	-53.125744
5512.500000	-55.653111
5555.566406	-58.270168
5598.632812	-58.274689
5641.699219	-56.667030
5684.765625	-53.112896
5727.832031	-49.866966
5770.898438	-49.979572
5813.964844	-51.345413
5857.031250	-49.876419
5900.097656	-50.370350
5943.164062	-54.815044
5986.230469	-56.652111
6029.296875	-55.845020
6072.363281	-55.127762
6115.429688	-54.894463
6158.496094	-54.162876
6201.562500	-52.223427
6244.628906	-50.687283
6287.695312	-50.332928
6330.761719	-50.109840
6373.828125	-48.407303
6416.894531	-48.875610
6459.960938	-51.632023
6503.027344	-50.524914
6546.093750	-48.624031
6589.160156	-50.702560
6632.226562	-54.797382
6675.292969	-55.666245
6718.359375	-57.832058
6761.425781	-58.601753
6804.492188	-56.894936
6847.558594	-54.901527
6890.625000	-54.557350
6933.691406	-52.851688
6976.757812	-52.305820
7019.824219	-52.733562
7062.890625	-53.074677
7105.957031	-54.601913
7149.023438	-56.154060
7192.089844	-54.591530
7235.156250	-50.078499
7278.222656	-49.054184
7321.289062	-51.777454
7364.355469	-52.328678
7407.421875	-49.122654
7450.488281	-47.617886
7493.554688	-49.643047
7536.621094	-52.807560
7579.687500	-51.601498
7622.753906	-53.446301
7665.820312	-55.589203
7708.886719	-56.232574
7751.953125	-54.799343
7795.019531	-51.069386
7838.085938	-52.381138
7881.152344	-53.320137
7924.218750	-51.262405
7967.285156	-55.282333
8010.351562	-55.723965
8053.417969	-55.281078
8096.484375	-57.087936
8139.550781	-56.538727
8182.617188	-54.240952
8225.683594	-53.524559
8268.750000	-52.574905
8311.816406	-53.551395
8354.882812	-55.234673
8397.949219	-56.378178
8441.015625	-54.599953
8484.082031	-56.038906
8527.148438	-56.697674
8570.214844	-55.222534
8613.281250	-53.066555
8656.347656	-53.482361
8699.414062	-52.387215
8742.480469	-50.724281
8785.546875	-51.393116
8828.613281	-53.515499
8871.679688	-52.580791
8914.746094	-52.268318
8957.812500	-55.933407
9000.878906	-56.021492
9043.945312	-55.386250
9087.011719	-55.426212
9130.078125	-53.919979
9173.144531	-50.861465
9216.210938	-50.878098
9259.277344	-52.602917
9302.343750	-52.027767
9345.410156	-54.517570
9388.476562	-57.483646
9431.542969	-55.977161
9474.609375	-57.059303
9517.675781	-55.387211
9560.742188	-53.477997
9603.808594	-51.501560
9646.875000	-50.606461
9689.941406	-52.292217
9733.007812	-50.597477
9776.074219	-49.694881
9819.140625	-50.770561
9862.207031	-49.753265
9905.273438	-47.740028
9948.339844	-49.058533
9991.406250	-51.002453
10034.472656	-49.993668
10077.539062	-47.742260
10120.605469	-49.062988
10163.671875	-52.503746
10206.738281	-51.747280
10249.804688	-52.761311
10292.871094	-50.643620
10335.937500	-50.292908
10379.003906	-49.030270
10422.070312	-46.303276
10465.136719	-44.065762
10508.203125	-44.479446
10551.269531	-45.797855
10594.335938	-46.785057
10637.402344	-48.886902
10680.468750	-50.937218
10723.535156	-50.488823
10766.601562	-49.896675
10809.667969	-50.810123
10852.734375	-53.246616
10895.800781	-50.786274
10938.867188	-48.985096
10981.933594	-46.421013
11025.000000	-46.680943
11068.066406	-47.907028
11111.132812	-46.917408
11154.199219	-45.757988
11197.265625	-46.433250
11240.332031	-47.646221
11283.398438	-47.254143
11326.464844	-49.193699
11369.531250	-51.818756
11412.597656	-49.076405
11455.664062	-50.130665
11498.730469	-51.393383
11541.796875	-50.715794
11584.863281	-50.202408
11627.929688	-49.344215
11670.996094	-47.987465
11714.062500	-47.830532
11757.128906	-48.474400
11800.195312	-48.728645
11843.261719	-48.059093
11886.328125	-48.613037
11929.394531	-47.992470
11972.460938	-47.963528
12015.527344	-50.031807
12058.593750	-49.300087
12101.660156	-47.347858
12144.726562	-46.965694
12187.792969	-47.396183
12230.859375	-47.035652
12273.925781	-45.668205
12316.992188	-45.759243
12360.058594	-47.278374
12403.125000	-46.774010
12446.191406	-43.120338
12489.257812	-43.246643
12532.324219	-45.816910
12575.390625	-44.717224
12618.457031	-43.055107
12661.523438	-41.157669
12704.589844	-41.662800
12747.656250	-43.211124
12790.722656	-44.148212
12833.789062	-42.526608
12876.855469	-44.073498
12919.921875	-46.877945
12962.988281	-47.136471
13006.054688	-46.733337
13049.121094	-48.492519
13092.187500	-49.797836
13135.253906	-51.627815
13178.320312	-50.112675
13221.386719	-49.263065
13264.453125	-50.380707
13307.519531	-51.453289
13350.585938	-50.209976
13393.652344	-48.251709
13436.718750	-47.259903
13479.785156	-45.823704
13522.851562	-43.768391
13565.917969	-44.240555
13608.984375	-46.448086
13652.050781	-47.640076
13695.117188	-47.189846
13738.183594	-46.394039
13781.250000	-46.318665
13824.316406	-45.848888
13867.382812	-47.103630
13910.449219	-48.237965
13953.515625	-46.439034
13996.582031	-46.929337
14039.648438	-47.314915
14082.714844	-45.408718
14125.781250	-45.376953
14168.847656	-45.572361
14211.914062	-44.057938
14254.980469	-46.604698
14298.046875	-46.510296
14341.113281	-47.589836
14384.179688	-47.710342
14427.246094	-45.043324
14470.312500	-42.150318
14513.378906	-41.740345
14556.445312	-44.836861
14599.511719	-45.726295
14642.578125	-43.739170
14685.644531	-41.882301
14728.710938	-41.231190
14771.777344	-43.419224
14814.843750	-41.154301
14857.910156	-39.890049
14900.976562	-41.953110
14944.042969	-44.186497
14987.109375	-44.322304
15030.175781	-47.687698
15073.242188	-45.229069
15116.308594	-45.635738
15159.375000	-47.217155
15202.441406	-48.107635
15245.507812	-46.836380
15288.574219	-45.732769
15331.640625	-42.942860
15374.707031	-41.689781
15417.773438	-43.230152
15460.839844	-45.762718
15503.906250	-47.412296
15546.972656	-46.623138
15590.039062	-45.562309
15633.105469	-45.006561
15676.171875	-44.587105
15719.238281	-46.892609
15762.304688	-47.067375
15805.371094	-45.321075
15848.437500	-46.416210
15891.503906	-46.470432
15934.570312	-43.399872
15977.636719	-42.194580
16020.703125	-44.428638
16063.769531	-44.311047
16106.835938	-45.118946
16149.902344	-44.516628
16192.968750	-42.557499
16236.035156	-43.585148
16279.101562	-44.147892
16322.167969	-46.637897
16365.234375	-43.830090
16408.300781	-42.235291
16451.367188	-44.512714
16494.433594	-46.321552
16537.500000	-46.397522
16580.566406	-45.201488
16623.632812	-43.198437
16666.699219	-42.657288
16709.765625	-43.570183
16752.832031	-45.204712
16795.898438	-42.271378
16838.964844	-42.817184
16882.031250	-43.776417
16925.097656	-42.432152
16968.164062	-40.587456
17011.230469	-40.293350
17054.296875	-40.615524
17097.363281	-41.011501
17140.429688	-42.304203
17183.496094	-43.683186
17226.562500	-44.504936
17269.628906	-44.325310
17312.695312	-44.205265
17355.761719	-44.865524
17398.828125	-43.207855
17441.894531	-41.803528
17484.960938	-40.829762
17528.027344	-40.498180
17571.093750	-41.835712
17614.160156	-41.337631
17657.226562	-40.430660
17700.292969	-43.879997
17743.359375	-49.842648
17786.425781	-50.388821
17829.492188	-50.642235
17872.558594	-48.160088
17915.625000	-47.811272
17958.691406	-49.518860
18001.757812	-48.882248
18044.824219	-45.781891
18087.890625	-43.217625
18130.957031	-43.705303
18174.023438	-42.473564
18217.089844	-40.850121
18260.156250	-40.608173
18303.222656	-43.149750
18346.289062	-44.324608
18389.355469	-41.738819
18432.421875	-43.601837
18475.488281	-45.866737
18518.554688	-44.442905
18561.621094	-45.629658
18604.687500	-46.708614
18647.753906	-46.172600
18690.820312	-45.359131
18733.886719	-47.911335
18776.953125	-50.509087
18820.019531	-46.360489
18863.085938	-47.337364
18906.152344	-49.861881
18949.218750	-48.723209
18992.285156	-46.955452
19035.351562	-46.287399
19078.417969	-46.553036
19121.484375	-44.333298
19164.550781	-41.929237
19207.617188	-41.903229
19250.683594	-43.901329
19293.750000	-44.201763
19336.816406	-42.319477
19379.882812	-41.474041
19422.949219	-43.801628
19466.015625	-41.481918
19509.082031	-38.849632
19552.148438	-42.102512
19595.214844	-43.179661
19638.281250	-41.446621
19681.347656	-43.257706
19724.414062	-44.518711
19767.480469	-43.103481
19810.546875	-42.403015
19853.613281	-45.068108
19896.679688	-44.377720
19939.746094	-44.485992
19982.812500	-45.657768
20025.878906	-45.521877
20068.945312	-46.205223
20112.011719	-48.079525
20155.078125	-48.024094
20198.144531	-48.082691
20241.210938	-49.268425
20284.277344	-46.553417
20327.343750	-45.606789
20370.410156	-46.985661
20413.476562	-48.974049
20456.542969	-47.024574
20499.609375	-44.078938
20542.675781	-44.084076
20585.742188	-47.123158
20628.808594	-46.946609
20671.875000	-49.791920
20714.941406	-48.737827
20758.007812	-49.102692
20801.074219	-49.916710
20844.140625	-47.500443
20887.207031	-48.574829
20930.273438	-51.003613
20973.339844	-47.121243
21016.406250	-44.746414
21059.472656	-46.765175
21102.539062	-48.285835
21145.605469	-46.425121
21188.671875	-44.940716
21231.738281	-45.524944
21274.804688	-48.238449
21317.871094	-48.729454
21360.937500	-48.774014
21404.003906	-49.178631
21447.070312	-47.677551
21490.136719	-48.560360
21533.203125	-51.298351
21576.269531	-50.603767
21619.335938	-49.878330
21662.402344	-49.731026
21705.468750	-49.187748
21748.535156	-47.724319
21791.601562	-48.713886
21834.667969	-50.125481
21877.734375	-50.024349
21920.800781	-48.867744
21963.867188	-50.152531
22006.933594	-53.659328
