周波数 (Hz)	レベル (dB)
43.066406	-31.034546
86.132812	-30.403643
129.199219	-32.215294
172.265625	-38.907265
215.332031	-42.398178
258.398438	-43.492287
301.464844	-42.755524
344.531250	-46.247704
387.597656	-45.671825
430.664062	-43.149574
473.730469	-45.221500
516.796875	-48.654247
559.863281	-51.692413
602.929688	-56.415573
645.996094	-58.822083
689.062500	-57.680058
732.128906	-60.684498
775.195312	-61.311932
818.261719	-56.556644
861.328125	-55.969147
904.394531	-58.101906
947.460938	-58.472435
990.527344	-56.504562
1033.593750	-57.192822
1076.660156	-59.779621
1119.726562	-59.033249
1162.792969	-61.065559
1205.859375	-62.723972
1248.925781	-61.268475
1291.992188	-58.163795
1335.058594	-56.119087
1378.125000	-55.061325
1421.191406	-56.764664
1464.257812	-60.682495
1507.324219	-57.777473
1550.390625	-53.974586
1593.457031	-52.894905
1636.523438	-53.507744
1679.589844	-53.315041
1722.656250	-54.015427
1765.722656	-55.022182
1808.789062	-53.098866
1851.855469	-50.804798
1894.921875	-49.609077
1937.988281	-49.671871
1981.054688	-51.327103
2024.121094	-54.477013
2067.187500	-58.270073
2110.253906	-61.828762
2153.320312	-62.551357
2196.386719	-60.698620
2239.453125	-57.471661
2282.519531	-53.774040
2325.585938	-51.071457
2368.652344	-49.558117
2411.718750	-49.213524
2454.785156	-50.435593
2497.851562	-51.740799
2540.917969	-51.815033
2583.984375	-51.345100
2627.050781	-50.126930
2670.117188	-50.409168
2713.183594	-51.088680
2756.250000	-50.493732
2799.316406	-51.798283
2842.382812	-53.953011
2885.449219	-55.006516
2928.515625	-55.403519
2971.582031	-55.298084
3014.648438	-53.991367
3057.714844	-50.722446
3100.781250	-49.691124
3143.847656	-47.158962
3186.914062	-45.678196
3229.980469	-46.365147
3273.046875	-47.354580
3316.113281	-48.089252
3359.179688	-48.943783
3402.246094	-48.498558
3445.312500	-48.782074
3488.378906	-49.890793
3531.445312	-49.813057
3574.511719	-49.329292
3617.578125	-47.484138
3660.644531	-47.852673
3703.710938	-49.802124
3746.777344	-50.612034
3789.843750	-50.046680
3832.910156	-48.743050
3875.976562	-49.346458
3919.042969	-51.602135
3962.109375	-52.215897
4005.175781	-53.485371
4048.242188	-56.492985
4091.308594	-55.745300
4134.375000	-54.878189
4177.441406	-52.761631
4220.507812	-51.325001
4263.574219	-51.617886
4306.640625	-52.094303
4349.707031	-52.283703
4392.773438	-55.191841
4435.839844	-56.880207
4478.906250	-56.509483
4521.972656	-57.218990
4565.039062	-56.598480
4608.105469	-55.840069
4651.171875	-54.258228
4694.238281	-55.030979
4737.304688	-55.972942
4780.371094	-55.948887
4823.437500	-57.552067
4866.503906	-58.052170
4909.570312	-56.246185
4952.636719	-55.038315
4995.703125	-55.637058
5038.769531	-56.893799
5081.835938	-55.842602
5124.902344	-53.921215
5167.968750	-53.502518
5211.035156	-54.929016
5254.101562	-56.380127
5297.167969	-55.817127
5340.234375	-55.143127
5383.300781	-55.161373
5426.367188	-55.582890
5469.433594	-57.034435
5512.500000	-56.376499
5555.566406	-56.787941
5598.632812	-57.989292
5641.699219	-57.809551
5684.765625	-55.655415
5727.832031	-55.214970
5770.898438	-55.974186
5813.964844	-55.216068
5857.031250	-54.449825
5900.097656	-54.051910
5943.164062	-54.534340
5986.230469	-56.160812
6029.296875	-59.151154
6072.363281	-59.879330
6115.429688	-58.307716
6158.496094	-57.116631
6201.562500	-55.369572
6244.628906	-54.718571
6287.695312	-55.823051
6330.761719	-58.328312
6373.828125	-60.203125
6416.894531	-59.812416
6459.960938	-59.500748
6503.027344	-58.115513
6546.093750	-56.204746
6589.160156	-54.586456
6632.226562	-53.957584
6675.292969	-54.344158
6718.359375	-54.452625
6761.425781	-54.150139
6804.492188	-54.884537
6847.558594	-57.008812
6890.625000	-58.640488
6933.691406	-59.270287
6976.757812	-58.521778
7019.824219	-57.836452
7062.890625	-57.390560
7105.957031	-56.258247
7149.023438	-56.311504
7192.089844	-56.750175
7235.156250	-57.488129
7278.222656	-56.639187
7321.289062	-56.136909
7364.355469	-56.421829
7407.421875	-56.574970
7450.488281	-56.796116
7493.554688	-58.207188
7536.621094	-59.908329
7579.687500	-61.310452
7622.753906	-59.604694
7665.820312	-58.957108
7708.886719	-60.071075
7751.953125	-59.853714
7795.019531	-58.477005
7838.085938	-57.959694
7881.152344	-59.635483
7924.218750	-60.709534
7967.285156	-59.825073
8010.351562	-60.143898
8053.417969	-60.398327
8096.484375	-60.632290
8139.550781	-62.274357
8182.617188	-63.453907
8225.683594	-63.983055
8268.750000	-63.658688
8311.816406	-63.516182
8354.882812	-62.188602
8397.949219	-60.609913
8441.015625	-60.951347
8484.082031	-61.228943
8527.148438	-61.462482
8570.214844	-58.250446
8613.281250	-56.379913
8656.347656	-55.714855
8699.414062	-54.190727
8742.480469	-53.577320
8785.546875	-54.092060
8828.613281	-54.747677
8871.679688	-53.894913
8914.746094	-52.123234
8957.812500	-51.548309
9000.878906	-51.470108
9043.945312	-51.207062
9087.011719	-52.117302
9130.078125	-54.085583
9173.144531	-57.770329
9216.210938	-58.217979
9259.277344	-56.142185
9302.343750	-54.741562
9345.410156	-53.916828
9388.476562	-54.166519
9431.542969	-54.128761
9474.609375	-53.776321
9517.675781	-52.504597
9560.742188	-50.450829
9603.808594	-48.660263
9646.875000	-48.436626
9689.941406	-49.301216
9733.007812	-49.966026
9776.074219	-50.681446
9819.140625	-51.305836
9862.207031	-50.790810
9905.273438	-50.127956
9948.339844	-50.282269
9991.406250	-50.896420
10034.472656	-52.024071
10077.539062	-53.536629
10120.605469	-53.993004
10163.671875	-53.255863
10206.738281	-52.383842
10249.804688	-52.138031
10292.871094	-51.646751
10335.937500	-51.182911
10379.003906	-50.511929
10422.070312	-51.142639
10465.136719	-52.494083
10508.203125	-53.157188
10551.269531	-53.379803
10594.335938	-54.189404
10637.402344	-54.403866
10680.468750	-53.863029
10723.535156	-53.492302
10766.601562	-53.266720
10809.667969	-53.608566
10852.734375	-54.338314
10895.800781	-54.025181
10938.867188	-53.420376
10981.933594	-53.425591
11025.000000	-53.111168
11068.066406	-52.385159
11111.132812	-52.736187
11154.199219	-54.456364
11197.265625	-56.824692
11240.332031	-57.115181
11283.398438	-56.459225
11326.464844	-55.783676
11369.531250	-54.670097
11412.597656	-53.724304
11455.664062	-54.275871
11498.730469	-54.958744
11541.796875	-55.009953
11584.863281	-55.308521
11627.929688	-56.281326
11670.996094	-55.687160
11714.062500	-56.918537
11757.128906	-57.873138
11800.195312	-55.388321
11843.261719	-53.345280
11886.328125	-52.355072
11929.394531	-51.895950
11972.460938	-52.595318
12015.527344	-53.465122
12058.593750	-55.078918
12101.660156	-54.832775
12144.726562	-53.632103
12187.792969	-52.554928
12230.859375	-52.059643
12273.925781	-53.068272
12316.992188	-51.991611
12360.058594	-50.563156
12403.125000	-49.589691
12446.191406	-49.661087
12489.257812	-50.020397
12532.324219	-50.808804
12575.390625	-52.260777
12618.457031	-53.150490
12661.523438	-52.131435
12704.589844	-52.965137
12747.656250	-55.078472
12790.722656	-55.451565
12833.789062	-54.412102
12876.855469	-50.897034
12919.921875	-48.889599
12962.988281	-47.854534
13006.054688	-47.501537
13049.121094	-47.930935
13092.187500	-49.694820
13135.253906	-51.944729
13178.320312	-51.021267
13221.386719	-49.767281
13264.453125	-50.057533
13307.519531	-50.266094
13350.585938	-50.619942
13393.652344	-52.338528
13436.718750	-53.808495
13479.785156	-53.070065
13522.851562	-52.857765
13565.917969	-52.926975
13608.984375	-53.985916
13652.050781	-55.967976
13695.117188	-53.524162
13738.183594	-51.397583
13781.250000	-49.655827
13824.316406	-47.548721
13867.382812	-46.325268
13910.449219	-46.274319
13953.515625	-47.683060
13996.582031	-49.823219
14039.648438	-51.223351
14082.714844	-51.101276
14125.781250	-48.663242
14168.847656	-45.611614
14211.914062	-44.996735
14254.980469	-45.185684
14298.046875	-45.896683
14341.113281	-48.004501
14384.179688	-50.411777
14427.246094	-50.869156
14470.312500	-51.387096
14513.378906	-52.303917
14556.445312	-48.642799
14599.511719	-46.447025
14642.578125	-44.944157
14685.644531	-43.733597
14728.710938	-44.370739
14771.777344	-46.743839
14814.843750	-50.871658
14857.910156	-50.810841
14900.976562	-49.844849
14944.042969	-48.829769
14987.109375	-46.518154
15030.175781	-46.092678
15073.242188	-47.235947
15116.308594	-48.831417
15159.375000	-50.656796
15202.441406	-51.289791
15245.507812	-52.063690
15288.574219	-51.349224
15331.640625	-49.988960
15374.707031	-49.401299
15417.773438	-48.759251
15460.839844	-49.290936
15503.906250	-49.698421
15546.972656	-49.918476
15590.039062	-49.216232
15633.105469	-48.327698
15676.171875	-46.829510
15719.238281	-45.859386
15762.304688	-45.460869
15805.371094	-45.642403
15848.437500	-46.366882
15891.503906	-47.612213
15934.570312	-48.981579
15977.636719	-48.653576
16020.703125	-49.006657
16063.769531	-50.895378
16106.835938	-51.939259
16149.902344	-50.149910
16192.968750	-47.212860
16236.035156	-46.084713
16279.101562	-46.726116
16322.167969	-48.081379
16365.234375	-48.494564
16408.300781	-49.677044
16451.367188	-51.040588
16494.433594	-53.329411
16537.500000	-53.237801
16580.566406	-50.050926
16623.632812	-47.422989
16666.699219	-45.377224
16709.765625	-43.829346
16752.832031	-43.160130
16795.898438	-43.883713
16838.964844	-46.519363
16882.031250	-49.260784
16925.097656	-49.704800
16968.164062	-49.306118
17011.230469	-48.992405
17054.296875	-48.755062
17097.363281	-48.705025
17140.429688	-49.404167
17183.496094	-49.798729
17226.562500	-49.221558
17269.628906	-49.366890
17312.695312	-49.101833
17355.761719	-49.693752
17398.828125	-51.565796
17441.894531	-53.120316
17484.960938	-52.079670
17528.027344	-50.483002
17571.093750	-47.972557
17614.160156	-45.588676
17657.226562	-44.221577
17700.292969	-44.915367
17743.359375	-47.716270
17786.425781	-50.693058
17829.492188	-50.269768
17872.558594	-48.694683
17915.625000	-48.339573
17958.691406	-48.191376
18001.757812	-47.090302
18044.824219	-46.649979
18087.890625	-47.121780
18130.957031	-47.334343
18174.023438	-47.410297
18217.089844	-47.391556
18260.156250	-48.000359
18303.222656	-50.439972
18346.289062	-52.278336
18389.355469	-51.048180
18432.421875	-49.527210
18475.488281	-47.876968
18518.554688	-48.037273
18561.621094	-48.802570
18604.687500	-49.105053
18647.753906	-48.984020
18690.820312	-47.639931
18733.886719	-47.069843
18776.953125	-49.038441
18820.019531	-47.445396
18863.085938	-46.855785
18906.152344	-47.095779
18949.218750	-47.565376
18992.285156	-47.327957
19035.351562	-47.615532
19078.417969	-49.275570
19121.484375	-51.400642
19164.550781	-52.321255
19207.617188	-53.463203
19250.683594	-52.174992
19293.750000	-49.738350
19336.816406	-50.742817
19379.882812	-51.508629
19422.949219	-51.760445
19466.015625	-51.550682
19509.082031	-49.493092
19552.148438	-48.132500
19595.214844	-48.419640
19638.281250	-51.018040
19681.347656	-53.416828
19724.414062	-52.962261
19767.480469	-54.411163
19810.546875	-56.068958
19853.613281	-55.780502
19896.679688	-55.159870
19939.746094	-52.737583
19982.812500	-50.513958
20025.878906	-49.539566
20068.945312	-49.948025
20112.011719	-51.658756
20155.078125	-53.146847
20198.144531	-53.216648
20241.210938	-52.091148
20284.277344	-51.943466
20327.343750	-53.149426
20370.410156	-55.256977
20413.476562	-55.383263
20456.542969	-53.900917
20499.609375	-53.392326
20542.675781	-53.482014
20585.742188	-53.991444
20628.808594	-54.720192
20671.875000	-53.093159
20714.941406	-51.326965
20758.007812	-50.556129
20801.074219	-50.744717
20844.140625	-51.418682
20887.207031	-51.606499
20930.273438	-50.952740
20973.339844	-50.129063
21016.406250	-50.189659
21059.472656	-51.261169
21102.539062	-52.994907
21145.605469	-54.974709
21188.671875	-56.028183
21231.738281	-55.339264
21274.804688	-54.639526
21317.871094	-53.515209
21360.937500	-52.628494
21404.003906	-53.167271
21447.070312	-54.611710
21490.136719	-55.256340
21533.203125	-55.181580
21576.269531	-54.532772
21619.335938	-54.609325
21662.402344	-55.598846
21705.468750	-57.358143
21748.535156	-59.703651
21791.601562	-62.021709
21834.667969	-63.970146
21877.734375	-63.715359
21920.800781	-61.359669
21963.867188	-59.876106
22006.933594	-59.148689
