周波数 (Hz)	レベル (dB)
43.066406	-31.790720
86.132812	-28.583380
129.199219	-31.049601
172.265625	-39.201370
215.332031	-41.843876
258.398438	-46.413044
301.464844	-49.351688
344.531250	-47.874832
387.597656	-46.223141
430.664062	-45.579239
473.730469	-45.884964
516.796875	-49.567875
559.863281	-56.191879
602.929688	-61.082054
645.996094	-59.969269
689.062500	-59.402962
732.128906	-60.285076
775.195312	-60.800823
818.261719	-58.402023
861.328125	-58.082623
904.394531	-58.665737
947.460938	-61.107052
990.527344	-59.721050
1033.593750	-59.058987
1076.660156	-58.503151
1119.726562	-56.428921
1162.792969	-58.373096
1205.859375	-61.887348
1248.925781	-62.444454
1291.992188	-57.784172
1335.058594	-55.980118
1378.125000	-56.542198
1421.191406	-60.045692
1464.257812	-61.308212
1507.324219	-59.949657
1550.390625	-57.694962
1593.457031	-55.977211
1636.523438	-55.657948
1679.589844	-55.462231
1722.656250	-56.608826
1765.722656	-58.923897
1808.789062	-59.992664
1851.855469	-59.747051
1894.921875	-58.519524
1937.988281	-57.845596
1981.054688	-56.936760
2024.121094	-56.348454
2067.187500	-56.180668
2110.253906	-56.774403
2153.320312	-57.451187
2196.386719	-58.487053
2239.453125	-58.759918
2282.519531	-56.578640
2325.585938	-53.775288
2368.652344	-52.126938
2411.718750	-52.001724
2454.785156	-53.479103
2497.851562	-54.514465
2540.917969	-55.314434
2583.984375	-55.871964
2627.050781	-55.757881
2670.117188	-54.824619
2713.183594	-54.921391
2756.250000	-55.080105
2799.316406	-55.752106
2842.382812	-55.920086
2885.449219	-55.185806
2928.515625	-54.998886
2971.582031	-55.773857
3014.648438	-54.538376
3057.714844	-52.532768
3100.781250	-50.992477
3143.847656	-49.440094
3186.914062	-48.097088
3229.980469	-48.669392
3273.046875	-50.774967
3316.113281	-51.413731
3359.179688	-50.563660
3402.246094	-49.717163
3445.312500	-49.613529
3488.378906	-49.184883
3531.445312	-49.136326
3574.511719	-50.420639
3617.578125	-51.832222
3660.644531	-51.393711
3703.710938	-50.342495
3746.777344	-49.059353
3789.843750	-49.399727
3832.910156	-50.393341
3875.976562	-52.453846
3919.042969	-53.788925
3962.109375	-53.442535
4005.175781	-53.478779
4048.242188	-53.256054
4091.308594	-54.078220
4134.375000	-54.937435
4177.441406	-55.352821
4220.507812	-55.777298
4263.574219	-55.135914
4306.640625	-55.176201
4349.707031	-55.305195
4392.773438	-54.620346
4435.839844	-54.808830
4478.906250	-54.973351
4521.972656	-54.152573
4565.039062	-54.748917
4608.105469	-54.918896
4651.171875	-53.796272
4694.238281	-53.261761
4737.304688	-52.822548
4780.371094	-53.275215
4823.437500	-54.520920
4866.503906	-55.087734
4909.570312	-56.164463
4952.636719	-56.741463
4995.703125	-55.948799
5038.769531	-55.141766
5081.835938	-54.865551
5124.902344	-55.248833
5167.968750	-56.074783
5211.035156	-56.596504
5254.101562	-56.671143
5297.167969	-56.907013
5340.234375	-55.788815
5383.300781	-53.637653
5426.367188	-52.730850
5469.433594	-52.551273
5512.500000	-52.998096
5555.566406	-54.420563
5598.632812	-55.202583
5641.699219	-56.559307
5684.765625	-57.447060
5727.832031	-57.445015
5770.898438	-57.197285
5813.964844	-57.688293
5857.031250	-58.697796
5900.097656	-57.648788
5943.164062	-56.089180
5986.230469	-56.080883
6029.296875	-57.173058
6072.363281	-57.385235
6115.429688	-58.368835
6158.496094	-60.184784
6201.562500	-59.553921
6244.628906	-57.812870
6287.695312	-56.314121
6330.761719	-55.127224
6373.828125	-55.411388
6416.894531	-56.726692
6459.960938	-58.212948
6503.027344	-58.571274
6546.093750	-58.793530
6589.160156	-58.298431
6632.226562	-57.520527
6675.292969	-57.617256
6718.359375	-57.218536
6761.425781	-56.694893
6804.492188	-57.044304
6847.558594	-57.177803
6890.625000	-56.251263
6933.691406	-54.281258
6976.757812	-52.713703
7019.824219	-52.499252
7062.890625	-53.225132
7105.957031	-52.318260
7149.023438	-50.670769
7192.089844	-49.846909
7235.156250	-49.748287
7278.222656	-50.480263
7321.289062	-51.310398
7364.355469	-51.866215
7407.421875	-52.907600
7450.488281	-52.872116
7493.554688	-52.382961
7536.621094	-53.202698
7579.687500	-53.903652
7622.753906	-54.790966
7665.820312	-56.557274
7708.886719	-57.696991
7751.953125	-58.796303
7795.019531	-57.628437
7838.085938	-57.038712
7881.152344	-56.151657
7924.218750	-54.483532
7967.285156	-54.979614
8010.351562	-56.264633
8053.417969	-56.510273
8096.484375	-56.863049
8139.550781	-58.538834
8182.617188	-60.310806
8225.683594	-58.011372
8268.750000	-56.230423
8311.816406	-56.536922
8354.882812	-57.373043
8397.949219	-57.723286
8441.015625	-58.228550
8484.082031	-58.090679
8527.148438	-56.940365
8570.214844	-56.652618
8613.281250	-58.227650
8656.347656	-57.705189
8699.414062	-57.035595
8742.480469	-57.168106
8785.546875	-57.490906
8828.613281	-58.815651
8871.679688	-57.775799
8914.746094	-55.067490
8957.812500	-54.770332
9000.878906	-54.841930
9043.945312	-54.865269
9087.011719	-55.942905
9130.078125	-56.984913
9173.144531	-57.216679
9216.210938	-56.595543
9259.277344	-57.376175
9302.343750	-58.526981
9345.410156	-58.043400
9388.476562	-57.578754
9431.542969	-56.468807
9474.609375	-55.965046
9517.675781	-56.005203
9560.742188	-56.151165
9603.808594	-56.576954
9646.875000	-55.798996
9689.941406	-53.571541
9733.007812	-51.358852
9776.074219	-51.024803
9819.140625	-51.885643
9862.207031	-53.318592
9905.273438	-53.641670
9948.339844	-53.099133
9991.406250	-53.243866
10034.472656	-53.577816
10077.539062	-53.082111
10120.605469	-52.645321
10163.671875	-52.834740
10206.738281	-52.425621
10249.804688	-51.207371
10292.871094	-50.481293
10335.937500	-50.786160
10379.003906	-51.769646
10422.070312	-53.108166
10465.136719	-54.280106
10508.203125	-54.454811
10551.269531	-54.348961
10594.335938	-52.671947
10637.402344	-52.780445
10680.468750	-54.948570
10723.535156	-55.824879
10766.601562	-55.121391
10809.667969	-53.965824
10852.734375	-52.366508
10895.800781	-51.582287
10938.867188	-52.057091
10981.933594	-53.113304
11025.000000	-53.466728
11068.066406	-52.785835
11111.132812	-51.526352
11154.199219	-52.403679
11197.265625	-54.240959
11240.332031	-55.028351
11283.398438	-56.520935
11326.464844	-56.450111
11369.531250	-53.672318
11412.597656	-51.321136
11455.664062	-51.896538
11498.730469	-53.556339
11541.796875	-54.043888
11584.863281	-53.504906
11627.929688	-53.320084
11670.996094	-53.197472
11714.062500	-52.631943
11757.128906	-53.292206
11800.195312	-53.709644
11843.261719	-52.190666
11886.328125	-52.077915
11929.394531	-53.401367
11972.460938	-54.071716
12015.527344	-52.297138
12058.593750	-51.784000
12101.660156	-52.806366
12144.726562	-51.811604
12187.792969	-50.707920
12230.859375	-50.566528
12273.925781	-50.586647
12316.992188	-50.229454
12360.058594	-49.765881
12403.125000	-49.614475
12446.191406	-48.972015
12489.257812	-48.084805
12532.324219	-47.322708
12575.390625	-46.734928
12618.457031	-47.182545
12661.523438	-48.535515
12704.589844	-49.137741
12747.656250	-48.581406
12790.722656	-47.755142
12833.789062	-48.769821
12876.855469	-50.814304
12919.921875	-52.045433
12962.988281	-52.381458
13006.054688	-52.086166
13049.121094	-51.265175
13092.187500	-50.693981
13135.253906	-51.816998
13178.320312	-52.918228
13221.386719	-52.060295
13264.453125	-49.850964
13307.519531	-48.971928
13350.585938	-49.237156
13393.652344	-49.488426
13436.718750	-49.005962
13479.785156	-48.884075
13522.851562	-49.142025
13565.917969	-49.854553
13608.984375	-50.946278
13652.050781	-50.581169
13695.117188	-49.877529
13738.183594	-50.775448
13781.250000	-51.834301
13824.316406	-50.896229
13867.382812	-50.026897
13910.449219	-49.246834
13953.515625	-48.912254
13996.582031	-49.136768
14039.648438	-48.523849
14082.714844	-47.926613
14125.781250	-47.603130
14168.847656	-46.590454
14211.914062	-45.826523
14254.980469	-46.961723
14298.046875	-47.909195
14341.113281	-48.593418
14384.179688	-49.390766
14427.246094	-48.917492
14470.312500	-48.525196
14513.378906	-48.192451
14556.445312	-48.384689
14599.511719	-48.263344
14642.578125	-47.797638
14685.644531	-47.849262
14728.710938	-48.699940
14771.777344	-49.021324
14814.843750	-50.400928
14857.910156	-50.936451
14900.976562	-49.851078
14944.042969	-49.607346
14987.109375	-49.330673
15030.175781	-49.366741
15073.242188	-49.426636
15116.308594	-49.299152
15159.375000	-48.790478
15202.441406	-48.403751
15245.507812	-47.547497
15288.574219	-46.957233
15331.640625	-47.187325
15374.707031	-47.289516
15417.773438	-47.722324
15460.839844	-47.923576
15503.906250	-47.305069
15546.972656	-46.268890
15590.039062	-45.840961
15633.105469	-46.101307
15676.171875	-46.198975
15719.238281	-47.169838
15762.304688	-47.226803
15805.371094	-45.582726
15848.437500	-45.338303
15891.503906	-46.814369
15934.570312	-47.927250
15977.636719	-47.307560
16020.703125	-46.343937
16063.769531	-46.317375
16106.835938	-46.557293
16149.902344	-47.328094
16192.968750	-47.089653
16236.035156	-46.466145
16279.101562	-47.064243
16322.167969	-47.002136
16365.234375	-46.924183
16408.300781	-46.349266
16451.367188	-46.220234
16494.433594	-47.235386
16537.500000	-48.962418
16580.566406	-50.124855
16623.632812	-49.424889
16666.699219	-48.573971
16709.765625	-47.734982
16752.832031	-46.945232
16795.898438	-46.478508
16838.964844	-45.034248
16882.031250	-43.796169
16925.097656	-44.027821
16968.164062	-44.192242
17011.230469	-44.753036
17054.296875	-45.616798
17097.363281	-46.781616
17140.429688	-49.853252
17183.496094	-50.802258
17226.562500	-49.749664
17269.628906	-48.972012
17312.695312	-47.878483
17355.761719	-46.703373
17398.828125	-45.304508
17441.894531	-44.235943
17484.960938	-44.336758
17528.027344	-44.766247
17571.093750	-45.102467
17614.160156	-45.737961
17657.226562	-46.961895
17700.292969	-48.684441
17743.359375	-48.220669
17786.425781	-46.256229
17829.492188	-45.633392
17872.558594	-45.461491
17915.625000	-44.855782
17958.691406	-44.628101
18001.757812	-44.825230
18044.824219	-45.610954
18087.890625	-46.101444
18130.957031	-45.774330
18174.023438	-45.767475
18217.089844	-46.257530
18260.156250	-45.844872
18303.222656	-45.947285
18346.289062	-46.144577
18389.355469	-46.702682
18432.421875	-47.598354
18475.488281	-48.359764
18518.554688	-48.181423
18561.621094	-48.575600
18604.687500	-49.310978
18647.753906	-50.405293
18690.820312	-50.492416
18733.886719	-49.710236
18776.953125	-50.001884
18820.019531	-49.621655
18863.085938	-48.938457
18906.152344	-49.492233
18949.218750	-50.710155
18992.285156	-51.073318
19035.351562	-52.943142
19078.417969	-54.186317
19121.484375	-53.306282
19164.550781	-51.699802
19207.617188	-51.732113
19250.683594	-52.290916
19293.750000	-52.346718
19336.816406	-51.601646
19379.882812	-50.170212
19422.949219	-49.813583
19466.015625	-50.504604
19509.082031	-51.652607
19552.148438	-51.432892
19595.214844	-50.499710
19638.281250	-48.891487
19681.347656	-48.193745
19724.414062	-48.768173
19767.480469	-48.885315
19810.546875	-48.604599
19853.613281	-48.960835
19896.679688	-49.073441
19939.746094	-49.980854
19982.812500	-50.922596
20025.878906	-51.856461
20068.945312	-51.563828
20112.011719	-51.491470
20155.078125	-52.168011
20198.144531	-50.933445
20241.210938	-49.326839
20284.277344	-49.176331
20327.343750	-52.308632
20370.410156	-57.075130
20413.476562	-53.763271
20456.542969	-49.829082
20499.609375	-48.123028
20542.675781	-47.142879
20585.742188	-46.400600
20628.808594	-46.236885
20671.875000	-47.506596
20714.941406	-49.421848
20758.007812	-49.381195
20801.074219	-48.757778
20844.140625	-48.665066
20887.207031	-49.050365
20930.273438	-50.669666
20973.339844	-53.694969
21016.406250	-55.972729
21059.472656	-55.727745
21102.539062	-54.015137
21145.605469	-53.264648
21188.671875	-54.018307
21231.738281	-52.626144
21274.804688	-52.155170
21317.871094	-53.199242
21360.937500	-53.528187
21404.003906	-53.527542
21447.070312	-52.822941
21490.136719	-52.208374
21533.203125	-52.005791
21576.269531	-52.918278
21619.335938	-55.882912
21662.402344	-58.735970
21705.468750	-58.405251
21748.535156	-58.358822
21791.601562	-59.125484
21834.667969	-58.975243
21877.734375	-59.323891
21920.800781	-59.325123
21963.867188	-58.653324
22006.933594	-59.760185
