周波数 (Hz)	レベル (dB)
43.066406	-26.078133
86.132812	-21.404079
129.199219	-24.030344
172.265625	-30.767485
215.332031	-37.562531
258.398438	-46.694092
301.464844	-44.075977
344.531250	-38.263271
387.597656	-36.139217
430.664062	-35.848721
473.730469	-39.050388
516.796875	-45.180565
559.863281	-48.086365
602.929688	-42.928497
645.996094	-41.618423
689.062500	-42.685345
732.128906	-46.386574
775.195312	-43.907440
818.261719	-39.529758
861.328125	-37.293266
904.394531	-36.414444
947.460938	-37.257313
990.527344	-38.587654
1033.593750	-38.447971
1076.660156	-42.048912
1119.726562	-47.671516
1162.792969	-45.352943
1205.859375	-42.546192
1248.925781	-42.227711
1291.992188	-44.629616
1335.058594	-45.147629
1378.125000	-45.378334
1421.191406	-45.799297
1464.257812	-46.232014
1507.324219	-46.986347
1550.390625	-43.729122
1593.457031	-39.207581
1636.523438	-37.602585
1679.589844	-39.896542
1722.656250	-45.164829
1765.722656	-42.355057
1808.789062	-40.676785
1851.855469	-41.595253
1894.921875	-40.874283
1937.988281	-41.336109
1981.054688	-44.998409
2024.121094	-48.060692
2067.187500	-49.663712
2110.253906	-48.186836
2153.320312	-46.641483
2196.386719	-47.210552
2239.453125	-48.221214
2282.519531	-47.667053
2325.585938	-44.990913
2368.652344	-42.216145
2411.718750	-38.873947
2454.785156	-36.284473
2497.851562	-36.813744
2540.917969	-41.321228
2583.984375	-46.916504
2627.050781	-45.316750
2670.117188	-44.671062
2713.183594	-43.029526
2756.250000	-42.735683
2799.316406	-44.832893
2842.382812	-46.034393
2885.449219	-45.714417
2928.515625	-46.098598
2971.582031	-45.711731
3014.648438	-46.846481
3057.714844	-45.629013
3100.781250	-44.177967
3143.847656	-45.327377
3186.914062	-46.465149
3229.980469	-46.823551
3273.046875	-46.716328
3316.113281	-47.299408
3359.179688	-47.314198
3402.246094	-47.496738
3445.312500	-48.186462
3488.378906	-48.099190
3531.445312	-47.824638
3574.511719	-49.090939
3617.578125	-48.352955
3660.644531	-44.359158
3703.710938	-43.089336
3746.777344	-45.539978
3789.843750	-52.445587
3832.910156	-50.344292
3875.976562	-47.324947
3919.042969	-46.770180
3962.109375	-46.432831
4005.175781	-45.972183
4048.242188	-48.129269
4091.308594	-50.100163
4134.375000	-49.348347
4177.441406	-47.635017
4220.507812	-46.431126
4263.574219	-47.323067
4306.640625	-49.180115
4349.707031	-47.947678
4392.773438	-45.743626
4435.839844	-44.424412
4478.906250	-43.938274
4521.972656	-45.671516
4565.039062	-49.480671
4608.105469	-49.861458
4651.171875	-48.503399
4694.238281	-47.953205
4737.304688	-48.165314
4780.371094	-47.059464
4823.437500	-43.109062
4866.503906	-40.471756
4909.570312	-40.775883
4952.636719	-43.461361
4995.703125	-47.735367
5038.769531	-50.398140
5081.835938	-52.365883
5124.902344	-54.595860
5167.968750	-48.762760
5211.035156	-47.379822
5254.101562	-49.015003
5297.167969	-50.771187
5340.234375	-51.061790
5383.300781	-52.558361
5426.367188	-53.387802
5469.433594	-49.614502
5512.500000	-48.336010
5555.566406	-49.484951
5598.632812	-50.123993
5641.699219	-50.674648
5684.765625	-50.149475
5727.832031	-48.599052
5770.898438	-49.288231
5813.964844	-52.171444
5857.031250	-53.963875
5900.097656	-52.294849
5943.164062	-51.341614
5986.230469	-50.057133
6029.296875	-45.967270
6072.363281	-43.809849
6115.429688	-43.796146
6158.496094	-44.424026
6201.562500	-46.451263
6244.628906	-50.592068
6287.695312	-51.417870
6330.761719	-48.703430
6373.828125	-48.939503
6416.894531	-50.847244
6459.960938	-51.740227
6503.027344	-50.752758
6546.093750	-50.884460
6589.160156	-50.655136
6632.226562	-50.711452
6675.292969	-51.300995
6718.359375	-51.852303
6761.425781	-53.700043
6804.492188	-57.170464
6847.558594	-52.741730
6890.625000	-48.056320
6933.691406	-45.249218
6976.757812	-44.636871
7019.824219	-45.928730
7062.890625	-46.962360
7105.957031	-47.519390
7149.023438	-46.889042
7192.089844	-45.465553
7235.156250	-45.310410
7278.222656	-47.061733
7321.289062	-49.100624
7364.355469	-50.393154
7407.421875	-50.968925
7450.488281	-51.356018
7493.554688	-51.037418
7536.621094	-51.513794
7579.687500	-52.441422
7622.753906	-52.421967
7665.820312	-54.357662
7708.886719	-56.207611
7751.953125	-54.283234
7795.019531	-52.597580
7838.085938	-50.984623
7881.152344	-50.525845
7924.218750	-50.992752
7967.285156	-50.530327
8010.351562	-48.875557
8053.417969	-47.488194
8096.484375	-45.283539
8139.550781	-44.373791
8182.617188	-45.450935
8225.683594	-47.080650
8268.750000	-46.898869
8311.816406	-47.334232
8354.882812	-48.643295
8397.949219	-48.095070
8441.015625	-49.134964
8484.082031	-50.572552
8527.148438	-51.635391
8570.214844	-50.337753
8613.281250	-48.453926
8656.347656	-48.437878
8699.414062	-49.819233
8742.480469	-49.163425
8785.546875	-46.225155
8828.613281	-44.820778
8871.679688	-44.584148
8914.746094	-45.979221
8957.812500	-46.211617
9000.878906	-44.853260
9043.945312	-44.503662
9087.011719	-45.672272
9130.078125	-50.900440
9173.144531	-53.073017
9216.210938	-48.479706
9259.277344	-48.223042
9302.343750	-51.274292
9345.410156	-53.427750
9388.476562	-51.971504
9431.542969	-49.602005
9474.609375	-48.876480
9517.675781	-44.625774
9560.742188	-43.620117
9603.808594	-47.348450
9646.875000	-48.957680
9689.941406	-51.448860
9733.007812	-47.788383
9776.074219	-46.391994
9819.140625	-46.607601
9862.207031	-46.294956
9905.273438	-47.745502
9948.339844	-50.811852
9991.406250	-48.339428
10034.472656	-47.899792
10077.539062	-47.020786
10120.605469	-46.268269
10163.671875	-48.121185
10206.738281	-47.406490
10249.804688	-46.900681
10292.871094	-46.408081
10335.937500	-45.796459
10379.003906	-46.233753
10422.070312	-46.689484
10465.136719	-44.587078
10508.203125	-43.908150
10551.269531	-44.558937
10594.335938	-46.439865
10637.402344	-50.922318
10680.468750	-48.789246
10723.535156	-46.081310
10766.601562	-47.310745
10809.667969	-51.970341
10852.734375	-49.881229
10895.800781	-47.703976
10938.867188	-47.533966
10981.933594	-45.994213
11025.000000	-46.278770
11068.066406	-49.303238
11111.132812	-48.613136
11154.199219	-47.808262
11197.265625	-47.513073
11240.332031	-45.106876
11283.398438	-42.723286
11326.464844	-43.579155
11369.531250	-47.159122
11412.597656	-49.259319
11455.664062	-49.357323
11498.730469	-46.642014
11541.796875	-45.184551
11584.863281	-45.345505
11627.929688	-44.049656
11670.996094	-43.764397
11714.062500	-45.894169
11757.128906	-46.232407
11800.195312	-44.547871
11843.261719	-43.742088
11886.328125	-45.200035
11929.394531	-47.086391
11972.460938	-48.215908
12015.527344	-48.245754
12058.593750	-44.760384
12101.660156	-42.189526
12144.726562	-41.886501
12187.792969	-42.542683
12230.859375	-40.516998
12273.925781	-40.354088
12316.992188	-43.238773
12360.058594	-44.702160
12403.125000	-43.966278
12446.191406	-45.184837
12489.257812	-46.614025
12532.324219	-44.359371
12575.390625	-42.267803
12618.457031	-42.514320
12661.523438	-43.639809
12704.589844	-43.806854
12747.656250	-42.285492
12790.722656	-41.518646
12833.789062	-43.781296
12876.855469	-47.232414
12919.921875	-47.266357
12962.988281	-44.452847
13006.054688	-43.611156
13049.121094	-44.893528
13092.187500	-43.362736
13135.253906	-43.172054
13178.320312	-45.272453
13221.386719	-46.904339
13264.453125	-46.649139
13307.519531	-46.239914
13350.585938	-44.989853
13393.652344	-42.547470
13436.718750	-40.921227
13479.785156	-39.192829
13522.851562	-37.027969
13565.917969	-36.132835
13608.984375	-38.065388
13652.050781	-42.143345
13695.117188	-43.688675
13738.183594	-43.425720
13781.250000	-44.739819
13824.316406	-43.424038
13867.382812	-41.178619
13910.449219	-40.760460
13953.515625	-41.223843
13996.582031	-40.524548
14039.648438	-38.552025
14082.714844	-37.408630
14125.781250	-37.001507
14168.847656	-37.635052
14211.914062	-38.419975
14254.980469	-39.041050
14298.046875	-41.653233
14341.113281	-43.980038
14384.179688	-44.665260
14427.246094	-44.519333
14470.312500	-45.591579
14513.378906	-46.506905
14556.445312	-45.682774
14599.511719	-44.833801
14642.578125	-46.808399
14685.644531	-44.216122
14728.710938	-41.389961
14771.777344	-39.647079
14814.843750	-40.205563
14857.910156	-42.059200
14900.976562	-40.794025
14944.042969	-39.611320
14987.109375	-40.110260
15030.175781	-42.499928
15073.242188	-45.940491
15116.308594	-44.930122
15159.375000	-42.824554
15202.441406	-41.449940
15245.507812	-38.641979
15288.574219	-36.470249
15331.640625	-35.403316
15374.707031	-34.822987
15417.773438	-35.950218
15460.839844	-37.819237
15503.906250	-38.246437
15546.972656	-37.280998
15590.039062	-35.978798
15633.105469	-36.783653
15676.171875	-38.070198
15719.238281	-38.528770
15762.304688	-38.968830
15805.371094	-38.491772
15848.437500	-37.990551
15891.503906	-38.655865
15934.570312	-38.967571
15977.636719	-36.948185
16020.703125	-34.795273
16063.769531	-34.845436
16106.835938	-36.710800
16149.902344	-39.117378
16192.968750	-40.307949
16236.035156	-37.587490
16279.101562	-36.773834
16322.167969	-40.037403
16365.234375	-39.301811
16408.300781	-37.370712
16451.367188	-41.300705
16494.433594	-41.556168
16537.500000	-37.443981
16580.566406	-34.814236
16623.632812	-34.462006
16666.699219	-35.798584
16709.765625	-35.767071
16752.832031	-37.252266
16795.898438	-40.177441
16838.964844	-38.134125
16882.031250	-36.015507
16925.097656	-35.960720
16968.164062	-35.286190
17011.230469	-33.941338
17054.296875	-34.819229
17097.363281	-37.570763
17140.429688	-37.130978
17183.496094	-34.826332
17226.562500	-33.282234
17269.628906	-34.759590
17312.695312	-36.683422
17355.761719	-36.515919
17398.828125	-37.431076
17441.894531	-42.253571
17484.960938	-39.179550
17528.027344	-35.692291
17571.093750	-35.781483
17614.160156	-36.438381
17657.226562	-35.413258
17700.292969	-36.915581
17743.359375	-41.409500
17786.425781	-41.625870
17829.492188	-40.201851
17872.558594	-38.228249
17915.625000	-38.013851
17958.691406	-37.948364
18001.757812	-38.220352
18044.824219	-39.227371
18087.890625	-38.669544
18130.957031	-37.966389
18174.023438	-37.907745
18217.089844	-38.907234
18260.156250	-40.995934
18303.222656	-44.634705
18346.289062	-44.694935
18389.355469	-40.451923
18432.421875	-37.851257
18475.488281	-36.885220
18518.554688	-38.300888
18561.621094	-41.552876
18604.687500	-42.352283
18647.753906	-41.044186
18690.820312	-39.583580
18733.886719	-39.574699
18776.953125	-39.999317
18820.019531	-40.225529
18863.085938	-42.048828
18906.152344	-44.625187
18949.218750	-43.003170
18992.285156	-39.107288
19035.351562	-37.808125
19078.417969	-39.900959
19121.484375	-42.324081
19164.550781	-40.254093
19207.617188	-39.732288
19250.683594	-43.033607
19293.750000	-43.893532
19336.816406	-40.825008
19379.882812	-40.119610
19422.949219	-40.319759
19466.015625	-40.573154
19509.082031	-39.915501
19552.148438	-37.971439
19595.214844	-35.840340
19638.281250	-35.214821
19681.347656	-35.913673
19724.414062	-38.163757
19767.480469	-40.852978
19810.546875	-41.256363
19853.613281	-38.453693
19896.679688	-37.203423
19939.746094	-36.530197
19982.812500	-36.701839
20025.878906	-38.307217
20068.945312	-40.676914
20112.011719	-41.686714
20155.078125	-42.265358
20198.144531	-43.293354
20241.210938	-45.183876
20284.277344	-46.663715
20327.343750	-47.055367
20370.410156	-46.551983
20413.476562	-44.002102
20456.542969	-42.565655
20499.609375	-43.081997
20542.675781	-44.507332
20585.742188	-43.890648
20628.808594	-41.711132
20671.875000	-39.992340
20714.941406	-40.151241
20758.007812	-42.800461
20801.074219	-47.480183
20844.140625	-52.355316
20887.207031	-50.887527
20930.273438	-50.223301
20973.339844	-49.306950
21016.406250	-49.298962
21059.472656	-49.058666
21102.539062	-48.071621
21145.605469	-47.698116
21188.671875	-46.667583
21231.738281	-43.792892
21274.804688	-43.937744
21317.871094	-48.586273
21360.937500	-47.173607
21404.003906	-44.184093
21447.070312	-42.504253
21490.136719	-43.435387
21533.203125	-46.321381
21576.269531	-46.523129
21619.335938	-45.995461
21662.402344	-46.946056
21705.468750	-47.861645
21748.535156	-47.920910
21791.601562	-47.831745
21834.667969	-47.794312
21877.734375	-47.078564
21920.800781	-46.320225
21963.867188	-46.312862
22006.933594	-47.198009
