周波数 (Hz)	レベル (dB)
43.066406	-29.051682
86.132812	-24.081839
129.199219	-24.484608
172.265625	-30.486162
215.332031	-39.260956
258.398438	-45.316914
301.464844	-42.675953
344.531250	-38.508091
387.597656	-39.915054
430.664062	-39.734638
473.730469	-41.829456
516.796875	-44.316238
559.863281	-43.976704
602.929688	-43.610588
645.996094	-44.836819
689.062500	-47.478600
732.128906	-51.710411
775.195312	-47.616802
818.261719	-43.210186
861.328125	-38.802475
904.394531	-36.378613
947.460938	-37.658104
990.527344	-39.711075
1033.593750	-39.453838
1076.660156	-43.756283
1119.726562	-45.110054
1162.792969	-45.345398
1205.859375	-41.118279
1248.925781	-39.314384
1291.992188	-40.389744
1335.058594	-42.739994
1378.125000	-47.702545
1421.191406	-53.994678
1464.257812	-49.679878
1507.324219	-50.415600
1550.390625	-50.992496
1593.457031	-45.616512
1636.523438	-42.268764
1679.589844	-42.138607
1722.656250	-46.502468
1765.722656	-49.482841
1808.789062	-47.502056
1851.855469	-48.883743
1894.921875	-47.322628
1937.988281	-47.438480
1981.054688	-49.992691
2024.121094	-48.781734
2067.187500	-48.202480
2110.253906	-49.813332
2153.320312	-48.762821
2196.386719	-46.762310
2239.453125	-48.558155
2282.519531	-48.357662
2325.585938	-46.950462
2368.652344	-48.881027
2411.718750	-46.938114
2454.785156	-43.449314
2497.851562	-44.995411
2540.917969	-48.996651
2583.984375	-51.255512
2627.050781	-52.083767
2670.117188	-51.999519
2713.183594	-53.003662
2756.250000	-52.256416
2799.316406	-50.624451
2842.382812	-53.064064
2885.449219	-53.109665
2928.515625	-51.519722
2971.582031	-51.482037
3014.648438	-48.768791
3057.714844	-47.147427
3100.781250	-47.409473
3143.847656	-48.707230
3186.914062	-46.589489
3229.980469	-44.160141
3273.046875	-43.054924
3316.113281	-43.229794
3359.179688	-45.615501
3402.246094	-46.321686
3445.312500	-45.195045
3488.378906	-47.429600
3531.445312	-49.329872
3574.511719	-46.881912
3617.578125	-45.219955
3660.644531	-45.121948
3703.710938	-46.401581
3746.777344	-44.587528
3789.843750	-44.143692
3832.910156	-44.545250
3875.976562	-45.336246
3919.042969	-47.150784
3962.109375	-48.204639
4005.175781	-47.319874
4048.242188	-46.143665
4091.308594	-44.255013
4134.375000	-44.391476
4177.441406	-46.086998
4220.507812	-47.294262
4263.574219	-48.705956
4306.640625	-48.828991
4349.707031	-46.587166
4392.773438	-43.625645
4435.839844	-45.182102
4478.906250	-45.538403
4521.972656	-45.731564
4565.039062	-46.128292
4608.105469	-46.893520
4651.171875	-48.006428
4694.238281	-46.892620
4737.304688	-48.189148
4780.371094	-47.240284
4823.437500	-46.435337
4866.503906	-46.506100
4909.570312	-47.477081
4952.636719	-50.193554
4995.703125	-49.802776
5038.769531	-50.576466
5081.835938	-50.617126
5124.902344	-49.956089
5167.968750	-49.511406
5211.035156	-51.549873
5254.101562	-53.957741
5297.167969	-56.849506
5340.234375	-54.152943
5383.300781	-48.695908
5426.367188	-46.391861
5469.433594	-45.311821
5512.500000	-45.843788
5555.566406	-49.203255
5598.632812	-52.827862
5641.699219	-52.394550
5684.765625	-51.408504
5727.832031	-52.264523
5770.898438	-53.209190
5813.964844	-53.405426
5857.031250	-53.419716
5900.097656	-52.910164
5943.164062	-53.795181
5986.230469	-52.263744
6029.296875	-50.662525
6072.363281	-49.666374
6115.429688	-48.541805
6158.496094	-47.225800
6201.562500	-46.308979
6244.628906	-46.106831
6287.695312	-45.935135
6330.761719	-45.711021
6373.828125	-46.232201
6416.894531	-48.497135
6459.960938	-49.281864
6503.027344	-48.813992
6546.093750	-50.023087
6589.160156	-50.264324
6632.226562	-50.056435
6675.292969	-49.484108
6718.359375	-48.429657
6761.425781	-48.189579
6804.492188	-48.587482
6847.558594	-48.730133
6890.625000	-48.748940
6933.691406	-48.010208
6976.757812	-49.663120
7019.824219	-51.144821
7062.890625	-50.951344
7105.957031	-49.362900
7149.023438	-49.388695
7192.089844	-50.162643
7235.156250	-50.371056
7278.222656	-50.516525
7321.289062	-50.033588
7364.355469	-48.436180
7407.421875	-46.935482
7450.488281	-46.877308
7493.554688	-48.767967
7536.621094	-51.534920
7579.687500	-53.175941
7622.753906	-54.187740
7665.820312	-53.742729
7708.886719	-51.920700
7751.953125	-50.252098
7795.019531	-49.461365
7838.085938	-53.029579
7881.152344	-56.536926
7924.218750	-54.017776
7967.285156	-51.920544
8010.351562	-52.024170
8053.417969	-52.328388
8096.484375	-52.974400
8139.550781	-55.429646
8182.617188	-54.744259
8225.683594	-50.892914
8268.750000	-49.136749
8311.816406	-48.911533
8354.882812	-46.884884
8397.949219	-50.144123
8441.015625	-48.804714
8484.082031	-49.168072
8527.148438	-49.655258
8570.214844	-51.341545
8613.281250	-50.261776
8656.347656	-49.476509
8699.414062	-49.876358
8742.480469	-51.197876
8785.546875	-50.686188
8828.613281	-47.648369
8871.679688	-46.551491
8914.746094	-48.044292
8957.812500	-50.233620
9000.878906	-51.037548
9043.945312	-50.379295
9087.011719	-47.714397
9130.078125	-46.007076
9173.144531	-46.548321
9216.210938	-45.746159
9259.277344	-44.546539
9302.343750	-45.455639
9345.410156	-46.826668
9388.476562	-46.874447
9431.542969	-45.035233
9474.609375	-43.581421
9517.675781	-45.089066
9560.742188	-45.988670
9603.808594	-47.803436
9646.875000	-47.691170
9689.941406	-48.095566
9733.007812	-46.349319
9776.074219	-44.543499
9819.140625	-45.398609
9862.207031	-48.663040
9905.273438	-50.334099
9948.339844	-49.485081
9991.406250	-48.579170
10034.472656	-48.752609
10077.539062	-46.242699
10120.605469	-44.874134
10163.671875	-45.173843
10206.738281	-47.342545
10249.804688	-49.525806
10292.871094	-48.597931
10335.937500	-44.915974
10379.003906	-42.893860
10422.070312	-42.990032
10465.136719	-45.314167
10508.203125	-50.195900
10551.269531	-50.090454
10594.335938	-45.370567
10637.402344	-43.333004
10680.468750	-44.889885
10723.535156	-47.423325
10766.601562	-49.731174
10809.667969	-48.734818
10852.734375	-46.703644
10895.800781	-45.526531
10938.867188	-45.032883
10981.933594	-44.698635
11025.000000	-43.963387
11068.066406	-44.876259
11111.132812	-45.011692
11154.199219	-45.158596
11197.265625	-46.889294
11240.332031	-47.555428
11283.398438	-47.511654
11326.464844	-46.404156
11369.531250	-47.753464
11412.597656	-50.064205
11455.664062	-47.997433
11498.730469	-45.242428
11541.796875	-44.501900
11584.863281	-43.587051
11627.929688	-43.615177
11670.996094	-42.375534
11714.062500	-42.422749
11757.128906	-45.468536
11800.195312	-45.947773
11843.261719	-43.957249
11886.328125	-42.967419
11929.394531	-43.081802
11972.460938	-43.569729
12015.527344	-45.223572
12058.593750	-46.657402
12101.660156	-44.327991
12144.726562	-42.254364
12187.792969	-42.011509
12230.859375	-41.553619
12273.925781	-40.457146
12316.992188	-38.892368
12360.058594	-38.044781
12403.125000	-39.336014
12446.191406	-41.140678
12489.257812	-43.472397
12532.324219	-44.986507
12575.390625	-44.598820
12618.457031	-43.765850
12661.523438	-44.419983
12704.589844	-44.801456
12747.656250	-42.679329
12790.722656	-40.603539
12833.789062	-39.859524
12876.855469	-38.431519
12919.921875	-38.362354
12962.988281	-39.375786
13006.054688	-40.165997
13049.121094	-40.961239
13092.187500	-40.442551
13135.253906	-40.566090
13178.320312	-40.093273
13221.386719	-39.991840
13264.453125	-41.261147
13307.519531	-41.705765
13350.585938	-41.756348
13393.652344	-42.176689
13436.718750	-44.157303
13479.785156	-45.276772
13522.851562	-43.290668
13565.917969	-43.544632
13608.984375	-45.298252
13652.050781	-44.917133
13695.117188	-43.774071
13738.183594	-42.528351
13781.250000	-43.546947
13824.316406	-41.922489
13867.382812	-39.143776
13910.449219	-39.020626
13953.515625	-40.442696
13996.582031	-42.433201
14039.648438	-40.933578
14082.714844	-37.842857
14125.781250	-36.556622
14168.847656	-37.214027
14211.914062	-39.790062
14254.980469	-42.165939
14298.046875	-42.647427
14341.113281	-42.049282
14384.179688	-41.183815
14427.246094	-39.152641
14470.312500	-39.867393
14513.378906	-41.996616
14556.445312	-43.324409
14599.511719	-43.283726
14642.578125	-42.340664
14685.644531	-40.823830
14728.710938	-41.385525
14771.777344	-42.614395
14814.843750	-42.775982
14857.910156	-41.387482
14900.976562	-42.013454
14944.042969	-43.702084
14987.109375	-45.342743
15030.175781	-46.128578
15073.242188	-44.045948
15116.308594	-43.140743
15159.375000	-43.251167
15202.441406	-43.387440
15245.507812	-40.111290
15288.574219	-37.627079
15331.640625	-37.711910
15374.707031	-39.008095
15417.773438	-40.877232
15460.839844	-40.977062
15503.906250	-38.781372
15546.972656	-37.629219
15590.039062	-38.791855
15633.105469	-39.429482
15676.171875	-38.099064
15719.238281	-37.033852
15762.304688	-36.723320
15805.371094	-37.203506
15848.437500	-38.483192
15891.503906	-39.066872
15934.570312	-39.022697
15977.636719	-39.508720
16020.703125	-39.100536
16063.769531	-38.176476
16106.835938	-39.145359
16149.902344	-39.516758
16192.968750	-38.374855
16236.035156	-39.055992
16279.101562	-41.094131
16322.167969	-40.375526
16365.234375	-40.914890
16408.300781	-41.128132
16451.367188	-39.286716
16494.433594	-38.650341
16537.500000	-38.514004
16580.566406	-40.824089
16623.632812	-40.660137
16666.699219	-40.308743
16709.765625	-39.125340
16752.832031	-39.552063
16795.898438	-41.514275
16838.964844	-40.991253
16882.031250	-39.765736
16925.097656	-39.424664
16968.164062	-39.365719
17011.230469	-38.499493
17054.296875	-39.388729
17097.363281	-41.236736
17140.429688	-42.768398
17183.496094	-41.849216
17226.562500	-40.022449
17269.628906	-38.987297
17312.695312	-40.015083
17355.761719	-40.635387
17398.828125	-38.317959
17441.894531	-35.927177
17484.960938	-34.309395
17528.027344	-33.903210
17571.093750	-33.981777
17614.160156	-32.523720
17657.226562	-31.908407
17700.292969	-32.579491
17743.359375	-34.243919
17786.425781	-35.135109
17829.492188	-34.618797
17872.558594	-35.582714
17915.625000	-38.470032
17958.691406	-38.743683
18001.757812	-38.285179
18044.824219	-37.161259
18087.890625	-35.188713
18130.957031	-34.128006
18174.023438	-33.945015
18217.089844	-34.206120
18260.156250	-35.408855
18303.222656	-37.289665
18346.289062	-40.623081
18389.355469	-43.337879
18432.421875	-41.166073
18475.488281	-39.414330
18518.554688	-38.441647
18561.621094	-38.237244
18604.687500	-39.027351
18647.753906	-40.862919
18690.820312	-43.134445
18733.886719	-42.636974
18776.953125	-41.378277
18820.019531	-40.591957
18863.085938	-39.411362
18906.152344	-38.592556
18949.218750	-39.961586
18992.285156	-41.905235
19035.351562	-43.063404
19078.417969	-43.166206
19121.484375	-41.390041
19164.550781	-40.609283
19207.617188	-41.792568
19250.683594	-43.389080
19293.750000	-45.015049
19336.816406	-44.392422
19379.882812	-43.956074
19422.949219	-42.888893
19466.015625	-43.682980
19509.082031	-45.354568
19552.148438	-44.990887
19595.214844	-44.836002
19638.281250	-43.861729
19681.347656	-42.533691
19724.414062	-41.483162
19767.480469	-42.142517
19810.546875	-43.844666
19853.613281	-43.898907
19896.679688	-45.593395
19939.746094	-47.361153
19982.812500	-47.508083
20025.878906	-45.736595
20068.945312	-44.142086
20112.011719	-42.488091
20155.078125	-41.272694
20198.144531	-40.211956
20241.210938	-38.972157
20284.277344	-38.296124
20327.343750	-39.079311
20370.410156	-40.486290
20413.476562	-41.938889
20456.542969	-42.477291
20499.609375	-41.386631
20542.675781	-40.772175
20585.742188	-41.827751
20628.808594	-43.642796
20671.875000	-44.856064
20714.941406	-45.842091
20758.007812	-46.461861
20801.074219	-46.048553
20844.140625	-44.808559
20887.207031	-44.478691
20930.273438	-44.818249
20973.339844	-45.310497
21016.406250	-45.832321
21059.472656	-46.342896
21102.539062	-47.215595
21145.605469	-48.685181
21188.671875	-50.031860
21231.738281	-51.268230
21274.804688	-51.164814
21317.871094	-49.336063
21360.937500	-46.976254
21404.003906	-45.163998
21447.070312	-44.282642
21490.136719	-45.149052
21533.203125	-46.937752
21576.269531	-49.728287
21619.335938	-49.746120
21662.402344	-49.236576
21705.468750	-50.477814
21748.535156	-50.572060
21791.601562	-51.297852
21834.667969	-51.676685
21877.734375	-49.120914
21920.800781	-46.929482
21963.867188	-47.972782
22006.933594	-49.956623
