周波数 (Hz)	レベル (dB)
43.066406	-27.744930
86.132812	-24.626341
129.199219	-26.957424
172.265625	-33.381096
215.332031	-38.185181
258.398438	-45.784149
301.464844	-42.379837
344.531250	-37.519016
387.597656	-35.052483
430.664062	-34.891365
473.730469	-38.312664
516.796875	-43.948849
559.863281	-45.952652
602.929688	-45.681946
645.996094	-44.865227
689.062500	-42.831329
732.128906	-43.019379
775.195312	-42.787212
818.261719	-40.778416
861.328125	-39.327957
904.394531	-39.480484
947.460938	-41.787933
990.527344	-43.882519
1033.593750	-43.904926
1076.660156	-45.131950
1119.726562	-47.873272
1162.792969	-49.436131
1205.859375	-48.239468
1248.925781	-46.280891
1291.992188	-47.183235
1335.058594	-48.646786
1378.125000	-47.287735
1421.191406	-46.784653
1464.257812	-48.095020
1507.324219	-50.290859
1550.390625	-51.560600
1593.457031	-47.729504
1636.523438	-45.514778
1679.589844	-47.152538
1722.656250	-50.617321
1765.722656	-48.964371
1808.789062	-44.896973
1851.855469	-41.366837
1894.921875	-40.214531
1937.988281	-40.801788
1981.054688	-41.792965
2024.121094	-43.599918
2067.187500	-45.186447
2110.253906	-44.980877
2153.320312	-43.743004
2196.386719	-41.894444
2239.453125	-41.108212
2282.519531	-41.334793
2325.585938	-41.373604
2368.652344	-41.024418
2411.718750	-39.939056
2454.785156	-38.882889
2497.851562	-39.115696
2540.917969	-40.628849
2583.984375	-42.185253
2627.050781	-43.841309
2670.117188	-46.904922
2713.183594	-49.873890
2756.250000	-48.913288
2799.316406	-49.474064
2842.382812	-48.287663
2885.449219	-45.143642
2928.515625	-44.572983
2971.582031	-45.763103
3014.648438	-47.221836
3057.714844	-49.223923
3100.781250	-49.198914
3143.847656	-49.343075
3186.914062	-48.973766
3229.980469	-46.802917
3273.046875	-44.783958
3316.113281	-45.130039
3359.179688	-48.195560
3402.246094	-52.816647
3445.312500	-50.354870
3488.378906	-47.699574
3531.445312	-47.984818
3574.511719	-46.414406
3617.578125	-45.986519
3660.644531	-48.474255
3703.710938	-52.137772
3746.777344	-53.876183
3789.843750	-50.799538
3832.910156	-46.845299
3875.976562	-44.636158
3919.042969	-44.790413
3962.109375	-46.937370
4005.175781	-49.718315
4048.242188	-51.942142
4091.308594	-52.478836
4134.375000	-52.298328
4177.441406	-50.691692
4220.507812	-45.473621
4263.574219	-43.279400
4306.640625	-44.455517
4349.707031	-47.573895
4392.773438	-49.531162
4435.839844	-49.713261
4478.906250	-50.246159
4521.972656	-51.550827
4565.039062	-56.749405
4608.105469	-57.520798
4651.171875	-54.807423
4694.238281	-54.007141
4737.304688	-53.590172
4780.371094	-55.148094
4823.437500	-54.056953
4866.503906	-50.224648
4909.570312	-49.575573
4952.636719	-50.268276
4995.703125	-49.378616
5038.769531	-46.969791
5081.835938	-46.364529
5124.902344	-48.224628
5167.968750	-51.850060
5211.035156	-52.793903
5254.101562	-52.999252
5297.167969	-51.501644
5340.234375	-48.501598
5383.300781	-46.633915
5426.367188	-46.150581
5469.433594	-46.808903
5512.500000	-48.377556
5555.566406	-50.228882
5598.632812	-51.415939
5641.699219	-52.407227
5684.765625	-52.933640
5727.832031	-51.971466
5770.898438	-50.169064
5813.964844	-47.674515
5857.031250	-44.781872
5900.097656	-44.000607
5943.164062	-46.579308
5986.230469	-50.793827
6029.296875	-49.213127
6072.363281	-47.072765
6115.429688	-45.307682
6158.496094	-43.771111
6201.562500	-42.831089
6244.628906	-42.767155
6287.695312	-44.201172
6330.761719	-46.915588
6373.828125	-48.427063
6416.894531	-48.423584
6459.960938	-47.955387
6503.027344	-48.305252
6546.093750	-49.017921
6589.160156	-49.831566
6632.226562	-51.851734
6675.292969	-53.835388
6718.359375	-53.266926
6761.425781	-52.806164
6804.492188	-54.173180
6847.558594	-55.434166
6890.625000	-52.426777
6933.691406	-48.908154
6976.757812	-49.295746
7019.824219	-51.929077
7062.890625	-53.739338
7105.957031	-53.989601
7149.023438	-52.444683
7192.089844	-50.418644
7235.156250	-49.059292
7278.222656	-47.318478
7321.289062	-47.029621
7364.355469	-49.858036
7407.421875	-51.532978
7450.488281	-51.828743
7493.554688	-53.312172
7536.621094	-53.488411
7579.687500	-52.917313
7622.753906	-51.431896
7665.820312	-49.481991
7708.886719	-50.175175
7751.953125	-53.789032
7795.019531	-56.097000
7838.085938	-56.712845
7881.152344	-57.966679
7924.218750	-57.785503
7967.285156	-52.693874
8010.351562	-50.691612
8053.417969	-49.634460
8096.484375	-49.646820
8139.550781	-50.612457
8182.617188	-48.371792
8225.683594	-45.985111
8268.750000	-45.969688
8311.816406	-47.407627
8354.882812	-47.478359
8397.949219	-49.854401
8441.015625	-53.092720
8484.082031	-51.918335
8527.148438	-50.721310
8570.214844	-51.179203
8613.281250	-49.290852
8656.347656	-45.460960
8699.414062	-45.183437
8742.480469	-47.339855
8785.546875	-50.605606
8828.613281	-50.377216
8871.679688	-47.901669
8914.746094	-47.706444
8957.812500	-49.133686
9000.878906	-48.879799
9043.945312	-47.602180
9087.011719	-47.889290
9130.078125	-48.810196
9173.144531	-51.039799
9216.210938	-48.551533
9259.277344	-45.877861
9302.343750	-44.692947
9345.410156	-44.473289
9388.476562	-45.269688
9431.542969	-44.847672
9474.609375	-44.422829
9517.675781	-46.355595
9560.742188	-49.577263
9603.808594	-47.367138
9646.875000	-45.167381
9689.941406	-44.658772
9733.007812	-46.826050
9776.074219	-50.392822
9819.140625	-48.664688
9862.207031	-48.609890
9905.273438	-48.691551
9948.339844	-50.539524
9991.406250	-51.473557
10034.472656	-49.074890
10077.539062	-48.821423
10120.605469	-51.202286
10163.671875	-52.210423
10206.738281	-53.226730
10249.804688	-52.493214
10292.871094	-49.801498
10335.937500	-47.952854
10379.003906	-47.386127
10422.070312	-46.556396
10465.136719	-45.384224
10508.203125	-45.709507
10551.269531	-45.792351
10594.335938	-44.032082
10637.402344	-42.089497
10680.468750	-42.096584
10723.535156	-45.617050
10766.601562	-46.221466
10809.667969	-44.491142
10852.734375	-44.802933
10895.800781	-45.439678
10938.867188	-45.113373
10981.933594	-46.027214
11025.000000	-49.650928
11068.066406	-48.185390
11111.132812	-44.324520
11154.199219	-43.950241
11197.265625	-46.367043
11240.332031	-45.867443
11283.398438	-43.913357
11326.464844	-44.750656
11369.531250	-46.691399
11412.597656	-46.547691
11455.664062	-44.387177
11498.730469	-43.434818
11541.796875	-46.425018
11584.863281	-48.536968
11627.929688	-46.869038
11670.996094	-47.099747
11714.062500	-47.137749
11757.128906	-46.715981
11800.195312	-44.553947
11843.261719	-41.609032
11886.328125	-40.677803
11929.394531	-41.776855
11972.460938	-43.873188
12015.527344	-45.413231
12058.593750	-44.954159
12101.660156	-42.551403
12144.726562	-41.677662
12187.792969	-42.218956
12230.859375	-42.541424
12273.925781	-43.049690
12316.992188	-44.574741
12360.058594	-44.895374
12403.125000	-45.356800
12446.191406	-46.362797
12489.257812	-45.741734
12532.324219	-45.227108
12575.390625	-47.448933
12618.457031	-45.461384
12661.523438	-43.659325
12704.589844	-42.755718
12747.656250	-44.156174
12790.722656	-48.070023
12833.789062	-49.526180
12876.855469	-45.516644
12919.921875	-45.031975
12962.988281	-52.283928
13006.054688	-46.581230
13049.121094	-41.801945
13092.187500	-40.567547
13135.253906	-41.337246
13178.320312	-42.674530
13221.386719	-41.657154
13264.453125	-41.462753
13307.519531	-43.302029
13350.585938	-45.676720
13393.652344	-43.670227
13436.718750	-42.163818
13479.785156	-44.767403
13522.851562	-43.071220
13565.917969	-38.185207
13608.984375	-36.692665
13652.050781	-36.006969
13695.117188	-36.000336
13738.183594	-37.746628
13781.250000	-40.989700
13824.316406	-42.635918
13867.382812	-44.136929
13910.449219	-41.698547
13953.515625	-39.394638
13996.582031	-39.294373
14039.648438	-40.088356
14082.714844	-42.653233
14125.781250	-45.977551
14168.847656	-47.944874
14211.914062	-48.065338
14254.980469	-48.574627
14298.046875	-43.891804
14341.113281	-41.907166
14384.179688	-41.721176
14427.246094	-40.369312
14470.312500	-40.896873
14513.378906	-43.759007
14556.445312	-46.303288
14599.511719	-44.309875
14642.578125	-42.296738
14685.644531	-43.671925
14728.710938	-47.315750
14771.777344	-44.595554
14814.843750	-42.716690
14857.910156	-43.211334
14900.976562	-42.385147
14944.042969	-40.909519
14987.109375	-41.454872
15030.175781	-43.885399
15073.242188	-45.333466
15116.308594	-42.508282
15159.375000	-40.809837
15202.441406	-39.545280
15245.507812	-39.524593
15288.574219	-42.756641
15331.640625	-44.970505
15374.707031	-41.385811
15417.773438	-38.460045
15460.839844	-38.184223
15503.906250	-38.223347
15546.972656	-39.523731
15590.039062	-43.892590
15633.105469	-43.805634
15676.171875	-42.754223
15719.238281	-37.433350
15762.304688	-36.489330
15805.371094	-40.639790
15848.437500	-41.911407
15891.503906	-39.110435
15934.570312	-40.100319
15977.636719	-40.765457
16020.703125	-40.287796
16063.769531	-41.296093
16106.835938	-38.683304
16149.902344	-35.089966
16192.968750	-34.305370
16236.035156	-34.130119
16279.101562	-34.578911
16322.167969	-37.918495
16365.234375	-40.915131
16408.300781	-40.819214
16451.367188	-38.652626
16494.433594	-38.553066
16537.500000	-40.009453
16580.566406	-41.857311
16623.632812	-42.520321
16666.699219	-38.974548
16709.765625	-35.931030
16752.832031	-35.909607
16795.898438	-37.786198
16838.964844	-40.175865
16882.031250	-43.469131
16925.097656	-42.960609
16968.164062	-44.085957
17011.230469	-37.708134
17054.296875	-34.286674
17097.363281	-35.405869
17140.429688	-37.452160
17183.496094	-36.534912
17226.562500	-34.672943
17269.628906	-33.328148
17312.695312	-33.204865
17355.761719	-33.464512
17398.828125	-34.432602
17441.894531	-35.232731
17484.960938	-36.108814
17528.027344	-36.897167
17571.093750	-35.081326
17614.160156	-33.708035
17657.226562	-34.599949
17700.292969	-36.553673
17743.359375	-37.688828
17786.425781	-38.494270
17829.492188	-40.883358
17872.558594	-42.053036
17915.625000	-42.352436
17958.691406	-44.571331
18001.757812	-41.639137
18044.824219	-38.471592
18087.890625	-37.132381
18130.957031	-34.439255
18174.023438	-32.557701
18217.089844	-33.616169
18260.156250	-36.385147
18303.222656	-38.466179
18346.289062	-38.950214
18389.355469	-38.106327
18432.421875	-38.543194
18475.488281	-34.170944
18518.554688	-33.380333
18561.621094	-35.315796
18604.687500	-37.324509
18647.753906	-39.731392
18690.820312	-40.099865
18733.886719	-38.884953
18776.953125	-36.019745
18820.019531	-33.564499
18863.085938	-34.975338
18906.152344	-39.407181
18949.218750	-37.672749
18992.285156	-38.366184
19035.351562	-40.601059
19078.417969	-41.775311
19121.484375	-40.615688
19164.550781	-40.341160
19207.617188	-39.585346
19250.683594	-36.597858
19293.750000	-37.711296
19336.816406	-40.970699
19379.882812	-39.320847
19422.949219	-39.050743
19466.015625	-40.582005
19509.082031	-40.255066
19552.148438	-37.860302
19595.214844	-37.722702
19638.281250	-39.947445
19681.347656	-41.265209
19724.414062	-41.266670
19767.480469	-42.760555
19810.546875	-43.428673
19853.613281	-44.978401
19896.679688	-42.259163
19939.746094	-38.513596
19982.812500	-37.647236
20025.878906	-40.292572
20068.945312	-45.287739
20112.011719	-45.691528
20155.078125	-43.031841
20198.144531	-40.908436
20241.210938	-40.281700
20284.277344	-38.299744
20327.343750	-39.172943
20370.410156	-41.720921
20413.476562	-41.230339
20456.542969	-40.065441
20499.609375	-39.871441
20542.675781	-42.287357
20585.742188	-44.504860
20628.808594	-43.205334
20671.875000	-41.427254
20714.941406	-39.395664
20758.007812	-40.262516
20801.074219	-44.491287
20844.140625	-45.484512
20887.207031	-41.331768
20930.273438	-40.542114
20973.339844	-42.002350
21016.406250	-42.834934
21059.472656	-45.209259
21102.539062	-46.351681
21145.605469	-44.513481
21188.671875	-44.934761
21231.738281	-47.051991
21274.804688	-48.541630
21317.871094	-48.043545
21360.937500	-47.241791
21404.003906	-47.028709
21447.070312	-46.467957
21490.136719	-47.323162
21533.203125	-52.367908
21576.269531	-53.159386
21619.335938	-47.550526
21662.402344	-45.393417
21705.468750	-45.677158
21748.535156	-47.059727
21791.601562	-47.849442
21834.667969	-46.302921
21877.734375	-46.242943
21920.800781	-49.651859
21963.867188	-50.761787
22006.933594	-49.481377
