周波数 (Hz)	レベル (dB)
43.066406	-28.622963
86.132812	-23.604225
129.199219	-23.959686
172.265625	-30.941385
215.332031	-39.376892
258.398438	-45.647038
301.464844	-43.691372
344.531250	-39.164894
387.597656	-38.674633
430.664062	-37.520065
473.730469	-41.920425
516.796875	-47.802311
559.863281	-46.415516
602.929688	-48.154408
645.996094	-47.949047
689.062500	-45.681583
732.128906	-47.442909
775.195312	-45.148010
818.261719	-42.725197
861.328125	-40.557865
904.394531	-38.611008
947.460938	-40.171318
990.527344	-42.901237
1033.593750	-41.795052
1076.660156	-44.175861
1119.726562	-46.460358
1162.792969	-47.304588
1205.859375	-46.196815
1248.925781	-44.128315
1291.992188	-43.845966
1335.058594	-43.872013
1378.125000	-44.098434
1421.191406	-44.929634
1464.257812	-46.669380
1507.324219	-50.007492
1550.390625	-49.100189
1593.457031	-46.169170
1636.523438	-44.307369
1679.589844	-43.666935
1722.656250	-45.337658
1765.722656	-47.454254
1808.789062	-48.402748
1851.855469	-47.258842
1894.921875	-46.151314
1937.988281	-48.340603
1981.054688	-50.280773
2024.121094	-50.508080
2067.187500	-50.055546
2110.253906	-49.137547
2153.320312	-47.803490
2196.386719	-46.169559
2239.453125	-46.147358
2282.519531	-48.117020
2325.585938	-47.099991
2368.652344	-44.490593
2411.718750	-42.938953
2454.785156	-42.035633
2497.851562	-42.042252
2540.917969	-42.716923
2583.984375	-43.259727
2627.050781	-43.121780
2670.117188	-43.609985
2713.183594	-44.241817
2756.250000	-44.331425
2799.316406	-45.615204
2842.382812	-45.829304
2885.449219	-45.085987
2928.515625	-44.109238
2971.582031	-43.697796
3014.648438	-43.515331
3057.714844	-42.591839
3100.781250	-43.239746
3143.847656	-43.348866
3186.914062	-44.761230
3229.980469	-45.875511
3273.046875	-46.063988
3316.113281	-46.313271
3359.179688	-46.336899
3402.246094	-45.915066
3445.312500	-45.136871
3488.378906	-45.720188
3531.445312	-46.845726
3574.511719	-46.522121
3617.578125	-45.992031
3660.644531	-45.394032
3703.710938	-44.288235
3746.777344	-43.905640
3789.843750	-45.179951
3832.910156	-47.269646
3875.976562	-47.669361
3919.042969	-46.642563
3962.109375	-46.688885
4005.175781	-46.827705
4048.242188	-47.699825
4091.308594	-49.087955
4134.375000	-50.684952
4177.441406	-50.997940
4220.507812	-49.317448
4263.574219	-48.535126
4306.640625	-48.862736
4349.707031	-49.071037
4392.773438	-48.170841
4435.839844	-46.805893
4478.906250	-46.269650
4521.972656	-46.752003
4565.039062	-46.417149
4608.105469	-46.880119
4651.171875	-48.077801
4694.238281	-48.875961
4737.304688	-49.607376
4780.371094	-50.922684
4823.437500	-50.830788
4866.503906	-49.219585
4909.570312	-47.709927
4952.636719	-46.728577
4995.703125	-47.473854
5038.769531	-48.495243
5081.835938	-47.903282
5124.902344	-45.864468
5167.968750	-44.646507
5211.035156	-44.380615
5254.101562	-44.508900
5297.167969	-44.577202
5340.234375	-44.619156
5383.300781	-45.138706
5426.367188	-46.440197
5469.433594	-47.691486
5512.500000	-49.262039
5555.566406	-48.688923
5598.632812	-47.349865
5641.699219	-47.680298
5684.765625	-48.752357
5727.832031	-47.669678
5770.898438	-46.681301
5813.964844	-47.127010
5857.031250	-47.674633
5900.097656	-48.136150
5943.164062	-48.824013
5986.230469	-49.201454
6029.296875	-49.591038
6072.363281	-50.215652
6115.429688	-49.428280
6158.496094	-47.656754
6201.562500	-46.380981
6244.628906	-46.723431
6287.695312	-47.808937
6330.761719	-48.378696
6373.828125	-49.489597
6416.894531	-51.573265
6459.960938	-52.712841
6503.027344	-53.071995
6546.093750	-52.543869
6589.160156	-52.019455
6632.226562	-53.120655
6675.292969	-55.197258
6718.359375	-54.305450
6761.425781	-52.429077
6804.492188	-51.609550
6847.558594	-52.540142
6890.625000	-53.696404
6933.691406	-55.089233
6976.757812	-54.717556
7019.824219	-51.905666
7062.890625	-50.454693
7105.957031	-49.909733
7149.023438	-51.920197
7192.089844	-52.265514
7235.156250	-51.358627
7278.222656	-50.901020
7321.289062	-49.496765
7364.355469	-48.299770
7407.421875	-47.691120
7450.488281	-47.794846
7493.554688	-49.626564
7536.621094	-51.193371
7579.687500	-51.212769
7622.753906	-49.821796
7665.820312	-49.838860
7708.886719	-50.363644
7751.953125	-48.873352
7795.019531	-47.464981
7838.085938	-46.386311
7881.152344	-45.589230
7924.218750	-46.299904
7967.285156	-47.171654
8010.351562	-47.324062
8053.417969	-48.064430
8096.484375	-47.733833
8139.550781	-47.200500
8182.617188	-46.592056
8225.683594	-46.390945
8268.750000	-46.685936
8311.816406	-47.177876
8354.882812	-47.676708
8397.949219	-47.936188
8441.015625	-46.729637
8484.082031	-46.446907
8527.148438	-47.114830
8570.214844	-47.941963
8613.281250	-48.763985
8656.347656	-48.049446
8699.414062	-47.135582
8742.480469	-47.217495
8785.546875	-48.228085
8828.613281	-48.290493
8871.679688	-47.078918
8914.746094	-47.031628
8957.812500	-46.474731
9000.878906	-44.658382
9043.945312	-43.904831
9087.011719	-45.320927
9130.078125	-47.703785
9173.144531	-48.638931
9216.210938	-46.812321
9259.277344	-46.103371
9302.343750	-47.180866
9345.410156	-47.252617
9388.476562	-47.388786
9431.542969	-47.393364
9474.609375	-47.310703
9517.675781	-47.809406
9560.742188	-49.535786
9603.808594	-50.808392
9646.875000	-50.426079
9689.941406	-50.573895
9733.007812	-50.163528
9776.074219	-49.834435
9819.140625	-47.707039
9862.207031	-47.639668
9905.273438	-47.916023
9948.339844	-48.415146
9991.406250	-48.121052
10034.472656	-48.122883
10077.539062	-49.146191
10120.605469	-49.376015
10163.671875	-49.620564
10206.738281	-48.901535
10249.804688	-48.756351
10292.871094	-47.430286
10335.937500	-47.240597
10379.003906	-48.519650
10422.070312	-48.455799
10465.136719	-47.493565
10508.203125	-46.392448
10551.269531	-45.091404
10594.335938	-43.532669
10637.402344	-42.646378
10680.468750	-42.367222
10723.535156	-41.828953
10766.601562	-40.914940
10809.667969	-40.074181
10852.734375	-40.734474
10895.800781	-41.993347
10938.867188	-43.131886
10981.933594	-43.828514
11025.000000	-44.352776
11068.066406	-45.415092
11111.132812	-45.476734
11154.199219	-45.068680
11197.265625	-45.751503
11240.332031	-44.148094
11283.398438	-43.291698
11326.464844	-44.119282
11369.531250	-44.736385
11412.597656	-44.848858
11455.664062	-44.243694
11498.730469	-43.298615
11541.796875	-42.716705
11584.863281	-42.643867
11627.929688	-42.319675
11670.996094	-42.280273
11714.062500	-43.142948
11757.128906	-44.184666
11800.195312	-45.845791
11843.261719	-46.520050
11886.328125	-44.424034
11929.394531	-44.325821
11972.460938	-46.539062
12015.527344	-49.439991
12058.593750	-50.021465
12101.660156	-46.891632
12144.726562	-44.738800
12187.792969	-43.170681
12230.859375	-42.902538
12273.925781	-43.544716
12316.992188	-43.459633
12360.058594	-42.770988
12403.125000	-43.199905
12446.191406	-42.907375
12489.257812	-41.716988
12532.324219	-41.496490
12575.390625	-41.968624
12618.457031	-43.253414
12661.523438	-43.134651
12704.589844	-41.096664
12747.656250	-40.127377
12790.722656	-41.229782
12833.789062	-43.784283
12876.855469	-45.699883
12919.921875	-43.473530
12962.988281	-40.995041
13006.054688	-41.298260
13049.121094	-43.503723
13092.187500	-47.502682
13135.253906	-49.344009
13178.320312	-49.199657
13221.386719	-48.023369
13264.453125	-46.662323
13307.519531	-43.368038
13350.585938	-41.474243
13393.652344	-41.816437
13436.718750	-42.613670
13479.785156	-42.705002
13522.851562	-41.238823
13565.917969	-40.256542
13608.984375	-41.340302
13652.050781	-43.882534
13695.117188	-45.876244
13738.183594	-45.491611
13781.250000	-45.093014
13824.316406	-44.388554
13867.382812	-43.273216
13910.449219	-41.407574
13953.515625	-39.743778
13996.582031	-38.375565
14039.648438	-37.508152
14082.714844	-36.934174
14125.781250	-36.771812
14168.847656	-37.032829
14211.914062	-36.880325
14254.980469	-37.613678
14298.046875	-38.867516
14341.113281	-39.602257
14384.179688	-39.819092
14427.246094	-40.664165
14470.312500	-40.990917
14513.378906	-42.152561
14556.445312	-43.254616
14599.511719	-42.045628
14642.578125	-41.736610
14685.644531	-41.507141
14728.710938	-40.253384
14771.777344	-39.893806
14814.843750	-40.912594
14857.910156	-42.617134
14900.976562	-43.051872
14944.042969	-44.684425
14987.109375	-45.610500
15030.175781	-42.426056
15073.242188	-41.596909
15116.308594	-41.171341
15159.375000	-40.883350
15202.441406	-40.678978
15245.507812	-39.979546
15288.574219	-39.372921
15331.640625	-39.972111
15374.707031	-41.116592
15417.773438	-40.630592
15460.839844	-38.469624
15503.906250	-36.682175
15546.972656	-35.894283
15590.039062	-35.976101
15633.105469	-36.930828
15676.171875	-37.798958
15719.238281	-38.332588
15762.304688	-38.901577
15805.371094	-37.773796
15848.437500	-36.747932
15891.503906	-36.700417
15934.570312	-37.511677
15977.636719	-38.470093
16020.703125	-40.028076
16063.769531	-41.579964
16106.835938	-40.163586
16149.902344	-37.056740
16192.968750	-36.095177
16236.035156	-38.797863
16279.101562	-43.270077
16322.167969	-45.693481
16365.234375	-42.807774
16408.300781	-40.665371
16451.367188	-40.121075
16494.433594	-38.626160
16537.500000	-36.981544
16580.566406	-37.527100
16623.632812	-39.698242
16666.699219	-40.831699
16709.765625	-39.466030
16752.832031	-38.266663
16795.898438	-35.570652
16838.964844	-34.448742
16882.031250	-35.624050
16925.097656	-38.412361
16968.164062	-40.005741
17011.230469	-40.048035
17054.296875	-38.009796
17097.363281	-36.628956
17140.429688	-36.695843
17183.496094	-37.509552
17226.562500	-38.024586
17269.628906	-37.620487
17312.695312	-38.241879
17355.761719	-39.375843
17398.828125	-40.368126
17441.894531	-41.401497
17484.960938	-38.553295
17528.027344	-36.996693
17571.093750	-38.817574
17614.160156	-42.548393
17657.226562	-41.664841
17700.292969	-39.576569
17743.359375	-40.244823
17786.425781	-40.968319
17829.492188	-41.884140
17872.558594	-39.059036
17915.625000	-36.354176
17958.691406	-36.320576
18001.757812	-38.136372
18044.824219	-38.102291
18087.890625	-37.688961
18130.957031	-38.676296
18174.023438	-37.694496
18217.089844	-35.928093
18260.156250	-36.486885
18303.222656	-38.461342
18346.289062	-38.786957
18389.355469	-39.136009
18432.421875	-39.779846
18475.488281	-38.256416
18518.554688	-36.955944
18561.621094	-37.492786
18604.687500	-38.333988
18647.753906	-38.452393
18690.820312	-38.376949
18733.886719	-37.961777
18776.953125	-36.646950
18820.019531	-36.581989
18863.085938	-37.955235
18906.152344	-38.476242
18949.218750	-38.332321
18992.285156	-38.650166
19035.351562	-37.531158
19078.417969	-36.372440
19121.484375	-36.054020
19164.550781	-36.190811
19207.617188	-36.744141
19250.683594	-38.383003
19293.750000	-40.621628
19336.816406	-42.048965
19379.882812	-42.978413
19422.949219	-42.777275
19466.015625	-41.251884
19509.082031	-39.550865
19552.148438	-39.892864
19595.214844	-42.953819
19638.281250	-43.867565
19681.347656	-41.646645
19724.414062	-42.506741
19767.480469	-43.878925
19810.546875	-41.869175
19853.613281	-40.546272
19896.679688	-42.066872
19939.746094	-43.313793
19982.812500	-40.833523
20025.878906	-39.891418
20068.945312	-41.513371
20112.011719	-42.876045
20155.078125	-41.625641
20198.144531	-40.940475
20241.210938	-41.074051
20284.277344	-42.011021
20327.343750	-43.835381
20370.410156	-45.376976
20413.476562	-45.011902
20456.542969	-44.296757
20499.609375	-44.426826
20542.675781	-45.598820
20585.742188	-47.883568
20628.808594	-48.333157
20671.875000	-49.497730
20714.941406	-49.937222
20758.007812	-48.859665
20801.074219	-47.388535
20844.140625	-45.694775
20887.207031	-45.102230
20930.273438	-45.538170
20973.339844	-45.611858
21016.406250	-45.210983
21059.472656	-45.306934
21102.539062	-46.253719
21145.605469	-46.694927
21188.671875	-46.247337
21231.738281	-46.533543
21274.804688	-47.129616
21317.871094	-46.589626
21360.937500	-46.644348
21404.003906	-48.048553
21447.070312	-49.334988
21490.136719	-48.991356
21533.203125	-47.913498
21576.269531	-46.960434
21619.335938	-46.926624
21662.402344	-47.459465
21705.468750	-48.039688
21748.535156	-47.354309
21791.601562	-45.942326
21834.667969	-46.247814
21877.734375	-48.635666
21920.800781	-53.065048
21963.867188	-53.424774
22006.933594	-50.340153
